File: Gnuplot/eq/Ferroceno/fc-1mM-F127-AuCNEA-Calcinado/3-FeOH-1mM-100.DTA.txt
"100mV/s"
EXPLAIN
TAG	CV
TITLE	LABEL	Cyclic Voltammetry	Test Identifier
DATE	LABEL	12/12/2016	Date
TIME	LABEL	15:10:37	Time
NOTES	NOTES	1	Notes...
	FeOH 1mM 100mv/
PSTAT	PSTAT	IFC1000-06217	Potentiostat
VINIT	POTEN	-2.00000E-001	F	Initial E (V)
VLIMIT1	POTEN	4.00000E-001	F	Scan Limit 1 (V)
VLIMIT2	POTEN	-2.00000E-001	F	Scan Limit 2 (V)
VFINAL	POTEN	4.00000E-001	F	Final E (V)
SCANRATE	QUANT	9.99998E+001	Scan Rate (mV/s)
STEPSIZE	QUANT	2.00000E+000	Step Size (mV)
CYCLES	IQUANT	1	Cycles (#)
IMODE	SELECTOR	1	I/E Range Mode
IRANGE	QUANT	5.00000E-001	Max Current (mA)
AREA	QUANT	1.00000E+000	Sample Area (cm^2)
EQDELAY	QUANT	5.00000E+000	Equil. Time (s)
IRCOMP	SELECTOR	0	IRComp
PFCOR	QUANT	5.00000E+001	PF Corr. (ohm)
SAMPLINGMODE	SELECTOR	1	Sampling Mode
EOC	QUANT	0	Open Circuit (V)
SEQUENCER	TOGGLE	TRUE	Run as Sequence
PSTATMODEL	IQUANT	48	Pstat Model
PSTATSECTION	LABEL	IFC1000-06217	Pstat Section
PSTATSERIALNO	LABEL	06217	Pstat Serial Number
CTRLMODE	IQUANT	1	Control Mode
IESTAB	IQUANT	2	I/E Stability
CASPEED	IQUANT	2	Control Amp Speed
CONVENTION	IQUANT	1	Current Convention
ICHRANGE	IQUANT	2	Ich Range
ICHRANGEMODE	TOGGLE	F	Ich Auto Range
ICHOFFSETENABLE	TOGGLE	F	Ich Offset Enable
ICHOFFSET	QUANT	0	Ich Offset (V)
ICHFILTER	IQUANT	3	Ich Filter
VCHRANGE	IQUANT	2	Vch Range
VCHRANGEMODE	TOGGLE	F	Vch Auto Range
VCHOFFSETENABLE	TOGGLE	F	Vch Offset Enable
VCHOFFSET	QUANT	0	Vch Offset (V)
VCHFILTER	IQUANT	3	Vch Filter
IERANGELOWERLIMIT	IQUANT	4	I/E Range Lower Limit
IERANGEMODE	TOGGLE	F	I/E AutoRange
IERANGE	IQUANT	9	I/E Range
ACHSELECT	IQUANT	4	Ach Select
CABLEID	IQUANT	14	Cable ID
DCCALDATE	LABEL	11/10/2016	DC Calibration Date
ACCALDATE	LABEL	11/10/2016	AC Calibration Date
FRAMEWORKVERSION	QUANT	6.23	Framework Version
INSTRUMENTVERSION	LABEL	3.26	Instrument Version
CURVE1	TABLE
	Pt	T	Vf	Im	Vu	Sig	Ach	IERange	Over
	#	s	V vs. Ref.	A	V	V	V	#	bits
	0	0.02	-2.00029E-001	-1.23077E-006	0.00000E+000	-2.00000E-001	0.00000E+000	9	...........
	6	0.14	-1.88036E-001	-1.08396E-006	0.00000E+000	-1.88000E-001	0.00000E+000	9	...........
	12	0.26	-1.76018E-001	-9.97514E-007	0.00000E+000	-1.76000E-001	0.00000E+000	9	...........
	18	0.38	-1.64020E-001	-9.23555E-007	0.00000E+000	-1.64000E-001	0.00000E+000	9	...........
	24	0.5	-1.51996E-001	-8.58199E-007	0.00000E+000	-1.52000E-001	0.00000E+000	9	...........
	30	0.62	-1.40001E-001	-8.11437E-007	0.00000E+000	-1.40000E-001	0.00000E+000	9	...........
	36	0.74	-1.27991E-001	-7.70503E-007	0.00000E+000	-1.28000E-001	0.00000E+000	9	...........
	42	0.86	-1.16005E-001	-7.18468E-007	0.00000E+000	-1.16000E-001	0.00000E+000	9	...........
	48	0.98	-1.03999E-001	-6.85720E-007	0.00000E+000	-1.04000E-001	0.00000E+000	9	...........
	54	1.1	-9.20047E-002	-6.47423E-007	0.00000E+000	-9.20000E-002	0.00000E+000	9	...........
	60	1.22	-7.99754E-002	-6.06211E-007	0.00000E+000	-8.00000E-002	0.00000E+000	9	...........
	66	1.34	-6.79653E-002	-5.79847E-007	0.00000E+000	-6.80000E-002	0.00000E+000	9	...........
	72	1.46	-5.59782E-002	-5.47932E-007	0.00000E+000	-5.60000E-002	0.00000E+000	9	...........
	78	1.58	-4.39672E-002	-5.19347E-007	0.00000E+000	-4.40000E-002	0.00000E+000	9	...........
	84	1.7	-3.19584E-002	-4.76887E-007	0.00000E+000	-3.20000E-002	0.00000E+000	9	...........
	90	1.82	-1.99504E-002	-4.43168E-007	0.00000E+000	-2.00000E-002	0.00000E+000	9	...........
	96	1.94	-7.94984E-003	-4.14029E-007	0.00000E+000	-7.99999E-003	0.00000E+000	9	...........
	102	2.06	4.05818E-003	-3.80449E-007	0.00000E+000	4.00000E-003	0.00000E+000	9	...........
	108	2.18	1.60812E-002	-3.24806E-007	0.00000E+000	1.60000E-002	0.00000E+000	9	...........
	114	2.3	2.80955E-002	-2.62919E-007	0.00000E+000	2.80000E-002	0.00000E+000	9	...........
	120	2.42	4.01044E-002	-1.97702E-007	0.00000E+000	4.00000E-002	0.00000E+000	9	...........
	126	2.54	5.21057E-002	-9.94599E-008	0.00000E+000	5.20000E-002	0.00000E+000	9	...........
	132	2.66	6.41271E-002	2.55627E-008	0.00000E+000	6.40000E-002	0.00000E+000	9	...........
	138	2.78	7.61372E-002	2.09975E-007	0.00000E+000	7.60000E-002	0.00000E+000	9	...........
	144	2.9	8.81139E-002	4.32962E-007	0.00000E+000	8.80000E-002	0.00000E+000	9	...........
	150	3.02	1.00137E-001	7.27688E-007	0.00000E+000	1.00000E-001	0.00000E+000	9	...........
	156	3.14	1.12130E-001	1.12010E-006	0.00000E+000	1.12000E-001	0.00000E+000	9	...........
	162	3.26	1.24135E-001	1.60423E-006	0.00000E+000	1.24000E-001	0.00000E+000	9	...........
	168	3.38	1.36151E-001	2.19660E-006	0.00000E+000	1.36000E-001	0.00000E+000	9	...........
	174	3.5	1.48157E-001	2.91010E-006	0.00000E+000	1.48000E-001	0.00000E+000	9	...........
	180	3.62	1.60163E-001	3.69951E-006	0.00000E+000	1.60000E-001	0.00000E+000	9	...........
	186	3.74	1.72181E-001	4.54664E-006	0.00000E+000	1.72000E-001	0.00000E+000	9	...........
	192	3.86	1.84185E-001	5.37156E-006	0.00000E+000	1.84000E-001	0.00000E+000	9	...........
	198	3.98	1.96188E-001	6.07993E-006	0.00000E+000	1.96000E-001	0.00000E+000	9	...........
	204	4.1	2.08187E-001	6.60472E-006	0.00000E+000	2.08000E-001	0.00000E+000	9	...........
	210	4.22	2.20189E-001	6.90986E-006	0.00000E+000	2.20000E-001	0.00000E+000	9	...........
	216	4.34	2.32219E-001	6.99075E-006	0.00000E+000	2.32000E-001	0.00000E+000	9	...........
	222	4.46	2.44209E-001	6.89015E-006	0.00000E+000	2.44000E-001	0.00000E+000	9	...........
	228	4.58	2.56238E-001	6.68618E-006	0.00000E+000	2.56000E-001	0.00000E+000	9	...........
	234	4.7	2.68220E-001	6.41643E-006	0.00000E+000	2.68000E-001	0.00000E+000	9	...........
	240	4.82	2.80223E-001	6.13946E-006	0.00000E+000	2.80000E-001	0.00000E+000	9	...........
	246	4.94	2.92240E-001	5.86125E-006	0.00000E+000	2.92000E-001	0.00000E+000	9	...........
	252	5.06	3.04242E-001	5.62813E-006	0.00000E+000	3.04000E-001	0.00000E+000	9	...........
	258	5.18	3.16253E-001	5.39710E-006	0.00000E+000	3.16000E-001	0.00000E+000	9	...........
	264	5.3	3.28254E-001	5.20061E-006	0.00000E+000	3.28000E-001	0.00000E+000	9	...........
	270	5.42	3.40277E-001	5.02314E-006	0.00000E+000	3.40000E-001	0.00000E+000	9	...........
	276	5.54	3.52276E-001	4.86107E-006	0.00000E+000	3.52000E-001	0.00000E+000	9	...........
	282	5.66	3.64286E-001	4.73688E-006	0.00000E+000	3.64000E-001	0.00000E+000	9	...........
	288	5.78	3.76287E-001	4.61893E-006	0.00000E+000	3.76000E-001	0.00000E+000	9	...........
	294	5.9	3.88308E-001	4.52083E-006	0.00000E+000	3.88000E-001	0.00000E+000	9	...........
	300	6.02	4.00323E-001	4.41884E-006	0.00000E+000	4.00000E-001	0.00000E+000	9	...........
	306	6.14	3.88319E-001	4.06542E-006	0.00000E+000	3.88000E-001	0.00000E+000	9	...........
	312	6.26	3.76288E-001	3.84201E-006	0.00000E+000	3.76000E-001	0.00000E+000	9	...........
	318	6.38	3.64289E-001	3.67009E-006	0.00000E+000	3.64000E-001	0.00000E+000	9	...........
	324	6.5	3.52278E-001	3.51066E-006	0.00000E+000	3.52000E-001	0.00000E+000	9	...........
	330	6.62	3.40272E-001	3.34858E-006	0.00000E+000	3.40000E-001	0.00000E+000	9	...........
	336	6.74	3.28255E-001	3.20525E-006	0.00000E+000	3.28000E-001	0.00000E+000	9	...........
	342	6.86	3.16246E-001	3.04595E-006	0.00000E+000	3.16000E-001	0.00000E+000	9	...........
	348	6.98	3.04246E-001	2.88277E-006	0.00000E+000	3.04000E-001	0.00000E+000	9	...........
	354	7.1	2.92229E-001	2.69516E-006	0.00000E+000	2.92000E-001	0.00000E+000	9	...........
	360	7.22	2.80246E-001	2.47634E-006	0.00000E+000	2.80000E-001	0.00000E+000	9	...........
	366	7.34	2.68207E-001	2.18023E-006	0.00000E+000	2.68000E-001	0.00000E+000	9	...........
	372	7.46	2.56227E-001	1.81806E-006	0.00000E+000	2.56000E-001	0.00000E+000	9	...........
	378	7.58	2.44209E-001	1.34128E-006	0.00000E+000	2.44000E-001	0.00000E+000	9	...........
	384	7.7	2.32213E-001	7.14922E-007	0.00000E+000	2.32000E-001	0.00000E+000	9	...........
	390	7.82	2.20184E-001	-9.07180E-008	0.00000E+000	2.20000E-001	0.00000E+000	9	...........
	396	7.94	2.08192E-001	-1.02388E-006	0.00000E+000	2.08000E-001	0.00000E+000	9	...........
	402	8.06	1.96195E-001	-2.08151E-006	0.00000E+000	1.96000E-001	0.00000E+000	9	...........
	408	8.18	1.84181E-001	-3.17188E-006	0.00000E+000	1.84000E-001	0.00000E+000	9	...........
	414	8.3	1.72170E-001	-4.19343E-006	0.00000E+000	1.72000E-001	0.00000E+000	9	...........
	420	8.42	1.60171E-001	-5.01586E-006	0.00000E+000	1.60000E-001	0.00000E+000	9	...........
	426	8.54	1.48146E-001	-5.58811E-006	0.00000E+000	1.48000E-001	0.00000E+000	9	...........
	432	8.66	1.36159E-001	-5.86202E-006	0.00000E+000	1.36000E-001	0.00000E+000	9	...........
	438	8.78	1.24139E-001	-5.87048E-006	0.00000E+000	1.24000E-001	0.00000E+000	9	...........
	444	8.9	1.12122E-001	-5.66484E-006	0.00000E+000	1.12000E-001	0.00000E+000	9	...........
	450	9.02	1.00134E-001	-5.33889E-006	0.00000E+000	1.00000E-001	0.00000E+000	9	...........
	456	9.14	8.80989E-002	-4.97618E-006	0.00000E+000	8.80000E-002	0.00000E+000	9	...........
	462	9.26	7.61138E-002	-4.60749E-006	0.00000E+000	7.60000E-002	0.00000E+000	9	...........
	468	9.38	6.41079E-002	-4.26642E-006	0.00000E+000	6.40000E-002	0.00000E+000	9	...........
	474	9.5	5.21078E-002	-3.96378E-006	0.00000E+000	5.20000E-002	0.00000E+000	9	...........
	480	9.62	4.01039E-002	-3.70833E-006	0.00000E+000	4.00000E-002	0.00000E+000	9	...........
	486	9.74	2.80917E-002	-3.48742E-006	0.00000E+000	2.80000E-002	0.00000E+000	9	...........
	492	9.86	1.60758E-002	-3.30787E-006	0.00000E+000	1.60000E-002	0.00000E+000	9	...........
	498	9.98	4.06652E-003	-3.14732E-006	0.00000E+000	4.00000E-003	0.00000E+000	9	...........
	504	10.1	-7.95109E-003	-3.01272E-006	0.00000E+000	-7.99999E-003	0.00000E+000	9	...........
	510	10.22	-1.99566E-002	-2.89950E-006	0.00000E+000	-2.00000E-002	0.00000E+000	9	...........
	516	10.34	-3.19600E-002	-2.79973E-006	0.00000E+000	-3.20000E-002	0.00000E+000	9	...........
	522	10.46	-4.39743E-002	-2.70565E-006	0.00000E+000	-4.40000E-002	0.00000E+000	9	...........
	528	10.58	-5.59761E-002	-2.62655E-006	0.00000E+000	-5.60000E-002	0.00000E+000	9	...........
	534	10.7	-6.79745E-002	-2.55676E-006	0.00000E+000	-6.80000E-002	0.00000E+000	9	...........
	540	10.82	-7.99855E-002	-2.48738E-006	0.00000E+000	-8.00000E-002	0.00000E+000	9	...........
	546	10.94	-9.19985E-002	-2.42632E-006	0.00000E+000	-9.20000E-002	0.00000E+000	9	...........
	552	11.06	-1.04004E-001	-2.36027E-006	0.00000E+000	-1.04000E-001	0.00000E+000	9	...........
	558	11.18	-1.16009E-001	-2.30186E-006	0.00000E+000	-1.16000E-001	0.00000E+000	9	...........
	564	11.3	-1.27999E-001	-2.25398E-006	0.00000E+000	-1.28000E-001	0.00000E+000	9	...........
	570	11.42	-1.40002E-001	-2.21111E-006	0.00000E+000	-1.40000E-001	0.00000E+000	9	...........
	576	11.54	-1.52017E-001	-2.16629E-006	0.00000E+000	-1.52000E-001	0.00000E+000	9	...........
	582	11.66	-1.64027E-001	-2.13368E-006	0.00000E+000	-1.64000E-001	0.00000E+000	9	...........
	588	11.78	-1.76024E-001	-2.11120E-006	0.00000E+000	-1.76000E-001	0.00000E+000	9	...........
	594	11.9	-1.88043E-001	-2.08872E-006	0.00000E+000	-1.88000E-001	0.00000E+000	9	...........
	600	12.02	-2.00031E-001	-2.07568E-006	0.00000E+000	-2.00000E-001	0.00000E+000	9	...........
CURVE2	TABLE
	Pt	T	Vf	Im	Vu	Sig	Ach	IERange	Over
	#	s	V vs. Ref.	A	V	V	V	#	bits
	601	12.04	-1.98045E-001	-1.98812E-006	0.00000E+000	-1.98000E-001	0.00000E+000	9	...........
	604	12.1	-1.92022E-001	-1.81217E-006	0.00000E+000	-1.92000E-001	0.00000E+000	9	...........
	607	12.16	-1.86032E-001	-1.76944E-006	0.00000E+000	-1.86000E-001	0.00000E+000	9	...........
	610	12.22	-1.80029E-001	-1.69464E-006	0.00000E+000	-1.80000E-001	0.00000E+000	9	...........
	613	12.28	-1.74031E-001	-1.62429E-006	0.00000E+000	-1.74000E-001	0.00000E+000	9	...........
	616	12.34	-1.68026E-001	-1.56282E-006	0.00000E+000	-1.68000E-001	0.00000E+000	9	...........
	619	12.4	-1.62044E-001	-1.49760E-006	0.00000E+000	-1.62000E-001	0.00000E+000	9	...........
	622	12.46	-1.56017E-001	-1.43391E-006	0.00000E+000	-1.56000E-001	0.00000E+000	9	...........
	625	12.52	-1.50012E-001	-1.35524E-006	0.00000E+000	-1.50000E-001	0.00000E+000	9	...........
	628	12.58	-1.44028E-001	-1.35510E-006	0.00000E+000	-1.44000E-001	0.00000E+000	9	...........
	631	12.64	-1.38002E-001	-1.31097E-006	0.00000E+000	-1.38000E-001	0.00000E+000	9	...........
	634	12.7	-1.32018E-001	-1.28891E-006	0.00000E+000	-1.32000E-001	0.00000E+000	9	...........
	637	12.76	-1.25995E-001	-1.26005E-006	0.00000E+000	-1.26000E-001	0.00000E+000	9	...........
	640	12.82	-1.19992E-001	-1.22175E-006	0.00000E+000	-1.20000E-001	0.00000E+000	9	...........
	643	12.88	-1.14005E-001	-1.11740E-006	0.00000E+000	-1.14000E-001	0.00000E+000	9	...........
	646	12.94	-1.07999E-001	-1.18220E-006	0.00000E+000	-1.08000E-001	0.00000E+000	9	...........
	649	13	-1.01984E-001	-1.14932E-006	0.00000E+000	-1.02000E-001	0.00000E+000	9	...........
	652	13.06	-9.59981E-002	-1.11740E-006	0.00000E+000	-9.60000E-002	0.00000E+000	9	...........
	655	13.12	-8.99855E-002	-1.07550E-006	0.00000E+000	-9.00000E-002	0.00000E+000	9	...........
	658	13.18	-8.39855E-002	-1.05441E-006	0.00000E+000	-8.40000E-002	0.00000E+000	9	...........
	661	13.24	-7.79687E-002	-1.00404E-006	0.00000E+000	-7.80000E-002	0.00000E+000	9	...........
	664	13.3	-7.19741E-002	-9.65044E-007	0.00000E+000	-7.20000E-002	0.00000E+000	9	...........
	667	13.36	-6.59741E-002	-9.72953E-007	0.00000E+000	-6.60000E-002	0.00000E+000	9	...........
	670	13.42	-5.99740E-002	-9.67958E-007	0.00000E+000	-6.00000E-002	0.00000E+000	9	...........
	673	13.48	-5.39706E-002	-8.76793E-007	0.00000E+000	-5.40000E-002	0.00000E+000	9	...........
	676	13.54	-4.79518E-002	-9.13564E-007	0.00000E+000	-4.80000E-002	0.00000E+000	9	...........
	679	13.6	-4.19643E-002	-8.92056E-007	0.00000E+000	-4.20000E-002	0.00000E+000	9	...........
	682	13.66	-3.59655E-002	-8.64582E-007	0.00000E+000	-3.60000E-002	0.00000E+000	9	...........
	685	13.72	-2.99529E-002	-8.43629E-007	0.00000E+000	-3.00000E-002	0.00000E+000	9	...........
	688	13.78	-2.39433E-002	-8.19901E-007	0.00000E+000	-2.40000E-002	0.00000E+000	9	...........
	691	13.84	-1.79566E-002	-7.87015E-007	0.00000E+000	-1.80000E-002	0.00000E+000	9	...........
	694	13.9	-1.19248E-002	-7.67172E-007	0.00000E+000	-1.20000E-002	0.00000E+000	9	...........
	697	13.96	-5.94315E-003	-7.45526E-007	0.00000E+000	-6.00000E-003	0.00000E+000	9	...........
	700	14.02	9.23580E-005	-7.14860E-007	0.00000E+000	7.45058E-009	0.00000E+000	9	...........
	703	14.08	6.06696E-003	-6.94462E-007	0.00000E+000	6.00000E-003	0.00000E+000	9	...........
	706	14.14	1.20683E-002	-6.46868E-007	0.00000E+000	1.20000E-002	0.00000E+000	9	...........
	709	14.2	1.80741E-002	-6.22030E-007	0.00000E+000	1.80000E-002	0.00000E+000	9	...........
	712	14.26	2.40930E-002	-5.89144E-007	0.00000E+000	2.40000E-002	0.00000E+000	9	...........
	715	14.32	3.00851E-002	-5.59171E-007	0.00000E+000	3.00000E-002	0.00000E+000	9	...........
	718	14.38	3.60889E-002	-5.32807E-007	0.00000E+000	3.60000E-002	0.00000E+000	9	...........
	721	14.44	4.20960E-002	-4.81050E-007	0.00000E+000	4.20000E-002	0.00000E+000	9	...........
	724	14.5	4.80994E-002	-4.52326E-007	0.00000E+000	4.80000E-002	0.00000E+000	9	...........
	727	14.56	5.41024E-002	-3.99320E-007	0.00000E+000	5.40000E-002	0.00000E+000	9	...........
	730	14.62	6.00949E-002	-3.39653E-007	0.00000E+000	6.00000E-002	0.00000E+000	9	...........
	733	14.68	6.61158E-002	-2.65694E-007	0.00000E+000	6.60000E-002	0.00000E+000	9	...........
	736	14.74	7.21100E-002	-1.67591E-007	0.00000E+000	7.20000E-002	0.00000E+000	9	...........
	739	14.8	7.81218E-002	-6.58800E-008	0.00000E+000	7.80000E-002	0.00000E+000	9	...........
	742	14.86	8.41143E-002	5.30372E-008	0.00000E+000	8.40000E-002	0.00000E+000	9	...........
	745	14.92	9.01352E-002	1.89022E-007	0.00000E+000	9.00000E-002	0.00000E+000	9	...........
	748	14.98	9.61181E-002	3.34442E-007	0.00000E+000	9.60000E-002	0.00000E+000	9	...........
	751	15.04	1.02136E-001	5.07060E-007	0.00000E+000	1.02000E-001	0.00000E+000	9	...........
	754	15.1	1.08130E-001	7.00907E-007	0.00000E+000	1.08000E-001	0.00000E+000	9	...........
	757	15.16	1.14123E-001	9.16401E-007	0.00000E+000	1.14000E-001	0.00000E+000	9	...........
	760	15.22	1.20126E-001	1.15465E-006	0.00000E+000	1.20000E-001	0.00000E+000	9	...........
	763	15.28	1.26150E-001	1.42884E-006	0.00000E+000	1.26000E-001	0.00000E+000	9	...........
	766	15.34	1.32156E-001	1.72565E-006	0.00000E+000	1.32000E-001	0.00000E+000	9	...........
	769	15.4	1.38149E-001	2.05354E-006	0.00000E+000	1.38000E-001	0.00000E+000	9	...........
	772	15.46	1.44154E-001	2.40710E-006	0.00000E+000	1.44000E-001	0.00000E+000	9	...........
	775	15.52	1.50145E-001	2.78730E-006	0.00000E+000	1.50000E-001	0.00000E+000	9	...........
	778	15.58	1.56164E-001	3.17555E-006	0.00000E+000	1.56000E-001	0.00000E+000	9	...........
	781	15.64	1.62175E-001	3.59572E-006	0.00000E+000	1.62000E-001	0.00000E+000	9	...........
	784	15.7	1.68168E-001	4.00894E-006	0.00000E+000	1.68000E-001	0.00000E+000	9	...........
	787	15.76	1.74170E-001	4.43577E-006	0.00000E+000	1.74000E-001	0.00000E+000	9	...........
	790	15.82	1.80191E-001	4.85233E-006	0.00000E+000	1.80000E-001	0.00000E+000	9	...........
	793	15.88	1.86184E-001	5.24071E-006	0.00000E+000	1.86000E-001	0.00000E+000	9	...........
	796	15.94	1.92200E-001	5.60607E-006	0.00000E+000	1.92000E-001	0.00000E+000	9	...........
	799	16	1.98185E-001	5.92341E-006	0.00000E+000	1.98000E-001	0.00000E+000	9	...........
	802	16.06	2.04181E-001	6.19358E-006	0.00000E+000	2.04000E-001	0.00000E+000	9	...........
	805	16.12	2.10190E-001	6.40630E-006	0.00000E+000	2.10000E-001	0.00000E+000	9	...........
	808	16.18	2.16182E-001	6.56462E-006	0.00000E+000	2.16000E-001	0.00000E+000	9	...........
	811	16.24	2.22191E-001	6.66689E-006	0.00000E+000	2.22000E-001	0.00000E+000	9	...........
	814	16.3	2.28203E-001	6.71559E-006	0.00000E+000	2.28000E-001	0.00000E+000	9	...........
	817	16.36	2.34225E-001	6.71393E-006	0.00000E+000	2.34000E-001	0.00000E+000	9	...........
	820	16.42	2.40195E-001	6.66647E-006	0.00000E+000	2.40000E-001	0.00000E+000	9	...........
	823	16.48	2.46216E-001	6.58724E-006	0.00000E+000	2.46000E-001	0.00000E+000	9	...........
	826	16.54	2.52200E-001	6.49094E-006	0.00000E+000	2.52000E-001	0.00000E+000	9	...........
	829	16.6	2.58227E-001	6.37133E-006	0.00000E+000	2.58000E-001	0.00000E+000	9	...........
	832	16.66	2.64206E-001	6.23715E-006	0.00000E+000	2.64000E-001	0.00000E+000	9	...........
	835	16.72	2.70221E-001	6.11573E-006	0.00000E+000	2.70000E-001	0.00000E+000	9	...........
	838	16.78	2.76223E-001	5.98377E-006	0.00000E+000	2.76000E-001	0.00000E+000	9	...........
	841	16.84	2.82239E-001	5.83461E-006	0.00000E+000	2.82000E-001	0.00000E+000	9	...........
	844	16.9	2.88246E-001	5.68669E-006	0.00000E+000	2.88000E-001	0.00000E+000	9	...........
	847	16.96	2.94223E-001	5.55875E-006	0.00000E+000	2.94000E-001	0.00000E+000	9	...........
	850	17.02	3.00249E-001	5.43928E-006	0.00000E+000	3.00000E-001	0.00000E+000	9	...........
	853	17.08	3.06260E-001	5.31564E-006	0.00000E+000	3.06000E-001	0.00000E+000	9	...........
	856	17.14	3.12252E-001	5.19950E-006	0.00000E+000	3.12000E-001	0.00000E+000	9	...........
	859	17.2	3.18261E-001	5.10182E-006	0.00000E+000	3.18000E-001	0.00000E+000	9	...........
	862	17.26	3.24270E-001	5.00982E-006	0.00000E+000	3.24000E-001	0.00000E+000	9	...........
	865	17.32	3.30275E-001	4.91574E-006	0.00000E+000	3.30000E-001	0.00000E+000	9	...........
	868	17.38	3.36275E-001	4.82818E-006	0.00000E+000	3.36000E-001	0.00000E+000	9	...........
	871	17.44	3.42273E-001	4.74590E-006	0.00000E+000	3.42000E-001	0.00000E+000	9	...........
	874	17.5	3.48274E-001	4.67180E-006	0.00000E+000	3.48000E-001	0.00000E+000	9	...........
	877	17.56	3.54278E-001	4.60492E-006	0.00000E+000	3.54000E-001	0.00000E+000	9	...........
	880	17.62	3.60296E-001	4.54247E-006	0.00000E+000	3.60000E-001	0.00000E+000	9	...........
	883	17.68	3.66271E-001	4.47809E-006	0.00000E+000	3.66000E-001	0.00000E+000	9	...........
	886	17.74	3.72296E-001	4.41690E-006	0.00000E+000	3.72000E-001	0.00000E+000	9	...........
	889	17.8	3.78305E-001	4.36098E-006	0.00000E+000	3.78000E-001	0.00000E+000	9	...........
	892	17.86	3.84317E-001	4.30603E-006	0.00000E+000	3.84000E-001	0.00000E+000	9	...........
	895	17.92	3.90307E-001	4.25940E-006	0.00000E+000	3.90000E-001	0.00000E+000	9	...........
	898	17.98	3.96302E-001	4.21375E-006	0.00000E+000	3.96000E-001	0.00000E+000	9	...........
	900	18.02	4.00332E-001	4.19558E-006	0.00000E+000	4.00000E-001	0.00000E+000	9	...........