File: Gnuplot/eq/Ferroceno/fc-1mM-F127-AuCNEA-Calcinado/4-FeOH-1mM-200.DTA.txt
"200mV/s"
EXPLAIN
TAG	CV
TITLE	LABEL	Cyclic Voltammetry	Test Identifier
DATE	LABEL	12/12/2016	Date
TIME	LABEL	15:11:00	Time
NOTES	NOTES	1	Notes...
	FeOH 1mM 200mv/
PSTAT	PSTAT	IFC1000-06217	Potentiostat
VINIT	POTEN	-2.00000E-001	F	Initial E (V)
VLIMIT1	POTEN	4.00000E-001	F	Scan Limit 1 (V)
VLIMIT2	POTEN	-2.00000E-001	F	Scan Limit 2 (V)
VFINAL	POTEN	4.00000E-001	F	Final E (V)
SCANRATE	QUANT	2.00000E+002	Scan Rate (mV/s)
STEPSIZE	QUANT	2.00000E+000	Step Size (mV)
CYCLES	IQUANT	1	Cycles (#)
IMODE	SELECTOR	1	I/E Range Mode
IRANGE	QUANT	5.00000E-001	Max Current (mA)
AREA	QUANT	1.00000E+000	Sample Area (cm^2)
EQDELAY	QUANT	5.00000E+000	Equil. Time (s)
IRCOMP	SELECTOR	0	IRComp
PFCOR	QUANT	5.00000E+001	PF Corr. (ohm)
SAMPLINGMODE	SELECTOR	1	Sampling Mode
EOC	QUANT	0	Open Circuit (V)
SEQUENCER	TOGGLE	TRUE	Run as Sequence
PSTATMODEL	IQUANT	48	Pstat Model
PSTATSECTION	LABEL	IFC1000-06217	Pstat Section
PSTATSERIALNO	LABEL	06217	Pstat Serial Number
CTRLMODE	IQUANT	1	Control Mode
IESTAB	IQUANT	2	I/E Stability
CASPEED	IQUANT	2	Control Amp Speed
CONVENTION	IQUANT	1	Current Convention
ICHRANGE	IQUANT	2	Ich Range
ICHRANGEMODE	TOGGLE	F	Ich Auto Range
ICHOFFSETENABLE	TOGGLE	F	Ich Offset Enable
ICHOFFSET	QUANT	0	Ich Offset (V)
ICHFILTER	IQUANT	3	Ich Filter
VCHRANGE	IQUANT	2	Vch Range
VCHRANGEMODE	TOGGLE	F	Vch Auto Range
VCHOFFSETENABLE	TOGGLE	F	Vch Offset Enable
VCHOFFSET	QUANT	0	Vch Offset (V)
VCHFILTER	IQUANT	3	Vch Filter
IERANGELOWERLIMIT	IQUANT	4	I/E Range Lower Limit
IERANGEMODE	TOGGLE	F	I/E AutoRange
IERANGE	IQUANT	9	I/E Range
ACHSELECT	IQUANT	4	Ach Select
CABLEID	IQUANT	14	Cable ID
DCCALDATE	LABEL	11/10/2016	DC Calibration Date
ACCALDATE	LABEL	11/10/2016	AC Calibration Date
FRAMEWORKVERSION	QUANT	6.23	Framework Version
INSTRUMENTVERSION	LABEL	3.26	Instrument Version
CURVE1	TABLE
	Pt	T	Vf	Im	Vu	Sig	Ach	IERange	Over
	#	s	V vs. Ref.	A	V	V	V	#	bits
	0	0.01	-2.00040E-001	-1.04025E-006	0.00000E+000	-2.00000E-001	0.00000E+000	9	...........
	6	0.07	-1.88041E-001	-8.45156E-007	0.00000E+000	-1.88000E-001	0.00000E+000	9	...........
	12	0.13	-1.76013E-001	-7.46636E-007	0.00000E+000	-1.76000E-001	0.00000E+000	9	...........
	18	0.19	-1.64041E-001	-6.80586E-007	0.00000E+000	-1.64000E-001	0.00000E+000	9	...........
	24	0.25	-1.52018E-001	-6.17867E-007	0.00000E+000	-1.52000E-001	0.00000E+000	9	...........
	30	0.31	-1.40021E-001	-5.60420E-007	0.00000E+000	-1.40000E-001	0.00000E+000	9	...........
	36	0.37	-1.27993E-001	-5.13797E-007	0.00000E+000	-1.28000E-001	0.00000E+000	9	...........
	42	0.43	-1.16010E-001	-4.72169E-007	0.00000E+000	-1.16000E-001	0.00000E+000	9	...........
	48	0.49	-1.03998E-001	-4.38034E-007	0.00000E+000	-1.04000E-001	0.00000E+000	9	...........
	54	0.55	-9.19989E-002	-4.06397E-007	0.00000E+000	-9.20000E-002	0.00000E+000	9	...........
	60	0.61	-7.99846E-002	-3.75592E-007	0.00000E+000	-8.00000E-002	0.00000E+000	9	...........
	66	0.67	-6.79678E-002	-3.40625E-007	0.00000E+000	-6.80000E-002	0.00000E+000	9	...........
	72	0.73	-5.59702E-002	-3.00107E-007	0.00000E+000	-5.60000E-002	0.00000E+000	9	...........
	78	0.79	-4.39501E-002	-2.66249E-007	0.00000E+000	-4.40000E-002	0.00000E+000	9	...........
	84	0.85	-3.19542E-002	-2.34057E-007	0.00000E+000	-3.20000E-002	0.00000E+000	9	...........
	90	0.91	-1.99449E-002	-2.01310E-007	0.00000E+000	-2.00000E-002	0.00000E+000	9	...........
	96	0.97	-7.93816E-003	-1.56074E-007	0.00000E+000	-7.99999E-003	0.00000E+000	9	...........
	102	1.03	4.07695E-003	-1.03068E-007	0.00000E+000	4.00000E-003	0.00000E+000	9	...........
	108	1.09	1.60812E-002	-5.39467E-008	0.00000E+000	1.60000E-002	0.00000E+000	9	...........
	114	1.15	2.80872E-002	3.12519E-008	0.00000E+000	2.80000E-002	0.00000E+000	9	...........
	120	1.21	4.01006E-002	1.43925E-007	0.00000E+000	4.00000E-002	0.00000E+000	9	...........
	126	1.27	5.21082E-002	2.91565E-007	0.00000E+000	5.20000E-002	0.00000E+000	9	...........
	132	1.33	6.41091E-002	4.80279E-007	0.00000E+000	6.40000E-002	0.00000E+000	9	...........
	138	1.39	7.61092E-002	7.44755E-007	0.00000E+000	7.60000E-002	0.00000E+000	9	...........
	144	1.45	8.81068E-002	1.08139E-006	0.00000E+000	8.80000E-002	0.00000E+000	9	...........
	150	1.51	1.00129E-001	1.51876E-006	0.00000E+000	1.00000E-001	0.00000E+000	9	...........
	156	1.57	1.12125E-001	2.08795E-006	0.00000E+000	1.12000E-001	0.00000E+000	9	...........
	162	1.63	1.24147E-001	2.77204E-006	0.00000E+000	1.24000E-001	0.00000E+000	9	...........
	168	1.69	1.36155E-001	3.58462E-006	0.00000E+000	1.36000E-001	0.00000E+000	9	...........
	174	1.75	1.48157E-001	4.50681E-006	0.00000E+000	1.48000E-001	0.00000E+000	9	...........
	180	1.81	1.60163E-001	5.49034E-006	0.00000E+000	1.60000E-001	0.00000E+000	9	...........
	186	1.87	1.72173E-001	6.50829E-006	0.00000E+000	1.72000E-001	0.00000E+000	9	...........
	192	1.93	1.84190E-001	7.46961E-006	0.00000E+000	1.84000E-001	0.00000E+000	9	...........
	198	1.99	1.96190E-001	8.30550E-006	0.00000E+000	1.96000E-001	0.00000E+000	9	...........
	204	2.05	2.08189E-001	8.91827E-006	0.00000E+000	2.08000E-001	0.00000E+000	9	...........
	210	2.11	2.20199E-001	9.27433E-006	0.00000E+000	2.20000E-001	0.00000E+000	9	...........
	216	2.17	2.32221E-001	9.38089E-006	0.00000E+000	2.32000E-001	0.00000E+000	9	...........
	222	2.23	2.44207E-001	9.27433E-006	0.00000E+000	2.44000E-001	0.00000E+000	9	...........
	228	2.29	2.56232E-001	9.02428E-006	0.00000E+000	2.56000E-001	0.00000E+000	9	...........
	234	2.35	2.68203E-001	8.69764E-006	0.00000E+000	2.68000E-001	0.00000E+000	9	...........
	240	2.41	2.80234E-001	8.35740E-006	0.00000E+000	2.80000E-001	0.00000E+000	9	...........
	246	2.47	2.92233E-001	8.02021E-006	0.00000E+000	2.92000E-001	0.00000E+000	9	...........
	252	2.53	3.04251E-001	7.71467E-006	0.00000E+000	3.04000E-001	0.00000E+000	9	...........
	258	2.59	3.16256E-001	7.42271E-006	0.00000E+000	3.16000E-001	0.00000E+000	9	...........
	264	2.65	3.28259E-001	7.17877E-006	0.00000E+000	3.28000E-001	0.00000E+000	9	...........
	270	2.71	3.40294E-001	6.96009E-006	0.00000E+000	3.40000E-001	0.00000E+000	9	...........
	276	2.77	3.52274E-001	6.75722E-006	0.00000E+000	3.52000E-001	0.00000E+000	9	...........
	282	2.83	3.64292E-001	6.57989E-006	0.00000E+000	3.64000E-001	0.00000E+000	9	...........
	288	2.89	3.76299E-001	6.43585E-006	0.00000E+000	3.76000E-001	0.00000E+000	9	...........
	294	2.95	3.88315E-001	6.30264E-006	0.00000E+000	3.88000E-001	0.00000E+000	9	...........
	300	3.01	4.00320E-001	6.17859E-006	0.00000E+000	4.00000E-001	0.00000E+000	9	...........
	306	3.07	3.88319E-001	5.63493E-006	0.00000E+000	3.88000E-001	0.00000E+000	9	...........
	312	3.13	3.76288E-001	5.31939E-006	0.00000E+000	3.76000E-001	0.00000E+000	9	...........
	318	3.19	3.64275E-001	5.07490E-006	0.00000E+000	3.64000E-001	0.00000E+000	9	...........
	324	3.25	3.52271E-001	4.85149E-006	0.00000E+000	3.52000E-001	0.00000E+000	9	...........
	330	3.31	3.40282E-001	4.64308E-006	0.00000E+000	3.40000E-001	0.00000E+000	9	...........
	336	3.37	3.28251E-001	4.43494E-006	0.00000E+000	3.28000E-001	0.00000E+000	9	...........
	342	3.43	3.16247E-001	4.22791E-006	0.00000E+000	3.16000E-001	0.00000E+000	9	...........
	348	3.49	3.04247E-001	4.00395E-006	0.00000E+000	3.04000E-001	0.00000E+000	9	...........
	354	3.55	2.92251E-001	3.76278E-006	0.00000E+000	2.92000E-001	0.00000E+000	9	...........
	360	3.61	2.80231E-001	3.45696E-006	0.00000E+000	2.80000E-001	0.00000E+000	9	...........
	366	3.67	2.68208E-001	3.08480E-006	0.00000E+000	2.68000E-001	0.00000E+000	9	...........
	372	3.73	2.56222E-001	2.60053E-006	0.00000E+000	2.56000E-001	0.00000E+000	9	...........
	378	3.79	2.44208E-001	1.97084E-006	0.00000E+000	2.44000E-001	0.00000E+000	9	...........
	384	3.85	2.32211E-001	1.14993E-006	0.00000E+000	2.32000E-001	0.00000E+000	9	...........
	390	3.91	2.20195E-001	1.13398E-007	0.00000E+000	2.20000E-001	0.00000E+000	9	...........
	396	3.97	2.08187E-001	-1.09909E-006	0.00000E+000	2.08000E-001	0.00000E+000	9	...........
	402	4.03	1.96189E-001	-2.45949E-006	0.00000E+000	1.96000E-001	0.00000E+000	9	...........
	408	4.09	1.84183E-001	-3.87956E-006	0.00000E+000	1.84000E-001	0.00000E+000	9	...........
	414	4.15	1.72161E-001	-5.23607E-006	0.00000E+000	1.72000E-001	0.00000E+000	9	...........
	420	4.21	1.60156E-001	-6.41748E-006	0.00000E+000	1.60000E-001	0.00000E+000	9	...........
	426	4.27	1.48148E-001	-7.27695E-006	0.00000E+000	1.48000E-001	0.00000E+000	9	...........
	432	4.33	1.36160E-001	-7.78315E-006	0.00000E+000	1.36000E-001	0.00000E+000	9	...........
	438	4.39	1.24126E-001	-7.92524E-006	0.00000E+000	1.24000E-001	0.00000E+000	9	...........
	444	4.45	1.12132E-001	-7.74985E-006	0.00000E+000	1.12000E-001	0.00000E+000	9	...........
	450	4.51	1.00134E-001	-7.35965E-006	0.00000E+000	1.00000E-001	0.00000E+000	9	...........
	456	4.57	8.81051E-002	-6.87344E-006	0.00000E+000	8.80000E-002	0.00000E+000	9	...........
	462	4.63	7.61159E-002	-6.36003E-006	0.00000E+000	7.60000E-002	0.00000E+000	9	...........
	468	4.69	6.41083E-002	-5.86910E-006	0.00000E+000	6.40000E-002	0.00000E+000	9	...........
	474	4.75	5.21040E-002	-5.42284E-006	0.00000E+000	5.20000E-002	0.00000E+000	9	...........
	480	4.81	4.00923E-002	-5.03654E-006	0.00000E+000	4.00000E-002	0.00000E+000	9	...........
	486	4.87	2.80897E-002	-4.70379E-006	0.00000E+000	2.80000E-002	0.00000E+000	9	...........
	492	4.93	1.60804E-002	-4.42239E-006	0.00000E+000	1.60000E-002	0.00000E+000	9	...........
	498	4.99	4.05609E-003	-4.18372E-006	0.00000E+000	4.00000E-003	0.00000E+000	9	...........
	504	5.05	-7.94817E-003	-3.97197E-006	0.00000E+000	-7.99999E-003	0.00000E+000	9	...........
	510	5.11	-1.99524E-002	-3.79575E-006	0.00000E+000	-2.00000E-002	0.00000E+000	9	...........
	516	5.17	-3.19592E-002	-3.64200E-006	0.00000E+000	-3.20000E-002	0.00000E+000	9	...........
	522	5.23	-4.39752E-002	-3.50768E-006	0.00000E+000	-4.40000E-002	0.00000E+000	9	...........
	528	5.29	-5.59786E-002	-3.39501E-006	0.00000E+000	-5.60000E-002	0.00000E+000	9	...........
	534	5.35	-6.79862E-002	-3.29677E-006	0.00000E+000	-6.80000E-002	0.00000E+000	9	...........
	540	5.41	-7.99804E-002	-3.20185E-006	0.00000E+000	-8.00000E-002	0.00000E+000	9	...........
	546	5.47	-9.19981E-002	-3.11832E-006	0.00000E+000	-9.20000E-002	0.00000E+000	9	...........
	552	5.53	-1.04006E-001	-3.04700E-006	0.00000E+000	-1.04000E-001	0.00000E+000	9	...........
	558	5.59	-1.16008E-001	-2.97595E-006	0.00000E+000	-1.16000E-001	0.00000E+000	9	...........
	564	5.65	-1.28002E-001	-2.92100E-006	0.00000E+000	-1.28000E-001	0.00000E+000	9	...........
	570	5.71	-1.40012E-001	-2.87133E-006	0.00000E+000	-1.40000E-001	0.00000E+000	9	...........
	576	5.77	-1.52009E-001	-2.83275E-006	0.00000E+000	-1.52000E-001	0.00000E+000	9	...........
	582	5.83	-1.64033E-001	-2.79778E-006	0.00000E+000	-1.64000E-001	0.00000E+000	9	...........
	588	5.89	-1.76027E-001	-2.77780E-006	0.00000E+000	-1.76000E-001	0.00000E+000	9	...........
	594	5.95	-1.88026E-001	-2.75865E-006	0.00000E+000	-1.88000E-001	0.00000E+000	9	...........
	600	6.01	-2.00042E-001	-2.74700E-006	0.00000E+000	-2.00000E-001	0.00000E+000	9	...........
CURVE2	TABLE
	Pt	T	Vf	Im	Vu	Sig	Ach	IERange	Over
	#	s	V vs. Ref.	A	V	V	V	#	bits
	601	6.02	-1.98053E-001	-2.80334E-006	0.00000E+000	-1.98000E-001	0.00000E+000	9	...........
	604	6.05	-1.92021E-001	-2.40815E-006	0.00000E+000	-1.92000E-001	0.00000E+000	9	...........
	607	6.08	-1.86041E-001	-2.46809E-006	0.00000E+000	-1.86000E-001	0.00000E+000	9	...........
	610	6.11	-1.80030E-001	-2.16643E-006	0.00000E+000	-1.80000E-001	0.00000E+000	9	...........
	613	6.14	-1.74035E-001	-2.26550E-006	0.00000E+000	-1.74000E-001	0.00000E+000	9	...........
	616	6.17	-1.68038E-001	-1.99381E-006	0.00000E+000	-1.68000E-001	0.00000E+000	9	...........
	619	6.2	-1.62042E-001	-2.11092E-006	0.00000E+000	-1.62000E-001	0.00000E+000	9	...........
	622	6.23	-1.56019E-001	-1.84478E-006	0.00000E+000	-1.56000E-001	0.00000E+000	9	...........
	625	6.26	-1.50017E-001	-1.98521E-006	0.00000E+000	-1.50000E-001	0.00000E+000	9	...........
	628	6.29	-1.44032E-001	-1.73405E-006	0.00000E+000	-1.44000E-001	0.00000E+000	9	...........
	631	6.32	-1.38003E-001	-1.87253E-006	0.00000E+000	-1.38000E-001	0.00000E+000	9	...........
	634	6.35	-1.32022E-001	-1.62665E-006	0.00000E+000	-1.32000E-001	0.00000E+000	9	...........
	637	6.38	-1.25996E-001	-1.76680E-006	0.00000E+000	-1.26000E-001	0.00000E+000	9	...........
	640	6.41	-1.19996E-001	-1.54173E-006	0.00000E+000	-1.20000E-001	0.00000E+000	9	...........
	643	6.44	-1.13999E-001	-1.68743E-006	0.00000E+000	-1.14000E-001	0.00000E+000	9	...........
	646	6.47	-1.08004E-001	-1.45875E-006	0.00000E+000	-1.08000E-001	0.00000E+000	9	...........
	649	6.5	-1.01986E-001	-1.61028E-006	0.00000E+000	-1.02000E-001	0.00000E+000	9	...........
	652	6.53	-9.59998E-002	-1.37883E-006	0.00000E+000	-9.60000E-002	0.00000E+000	9	...........
	655	6.56	-8.99939E-002	-1.54145E-006	0.00000E+000	-9.00000E-002	0.00000E+000	9	...........
	658	6.59	-8.39888E-002	-1.30834E-006	0.00000E+000	-8.40000E-002	0.00000E+000	9	...........
	661	6.62	-7.79788E-002	-1.47041E-006	0.00000E+000	-7.80000E-002	0.00000E+000	9	...........
	664	6.65	-7.19871E-002	-1.24867E-006	0.00000E+000	-7.20000E-002	0.00000E+000	9	...........
	667	6.68	-6.59678E-002	-1.40353E-006	0.00000E+000	-6.60000E-002	0.00000E+000	9	...........
	670	6.71	-5.99669E-002	-1.17180E-006	0.00000E+000	-6.00000E-002	0.00000E+000	9	...........
	673	6.74	-5.39827E-002	-1.33609E-006	0.00000E+000	-5.40000E-002	0.00000E+000	9	...........
	676	6.77	-4.79593E-002	-1.11157E-006	0.00000E+000	-4.80000E-002	0.00000E+000	9	...........
	679	6.8	-4.19710E-002	-1.26532E-006	0.00000E+000	-4.20000E-002	0.00000E+000	9	...........
	682	6.83	-3.59659E-002	-1.04775E-006	0.00000E+000	-3.60000E-002	0.00000E+000	9	...........
	685	6.86	-2.99609E-002	-1.20510E-006	0.00000E+000	-3.00000E-002	0.00000E+000	9	...........
	688	6.89	-2.39433E-002	-9.84470E-007	0.00000E+000	-2.40000E-002	0.00000E+000	9	...........
	691	6.92	-1.79524E-002	-1.13766E-006	0.00000E+000	-1.80000E-002	0.00000E+000	9	...........
	694	6.95	-1.19432E-002	-9.16756E-007	0.00000E+000	-1.20000E-002	0.00000E+000	9	...........
	697	6.98	-5.93397E-003	-1.06551E-006	0.00000E+000	-6.00000E-003	0.00000E+000	9	...........
	700	7.01	8.52657E-005	-8.39328E-007	0.00000E+000	7.45058E-009	0.00000E+000	9	...........
	703	7.04	6.06696E-003	-9.93906E-007	0.00000E+000	6.00000E-003	0.00000E+000	9	...........
	706	7.07	1.20678E-002	-7.58569E-007	0.00000E+000	1.20000E-002	0.00000E+000	9	...........
	709	7.1	1.80746E-002	-9.04267E-007	0.00000E+000	1.80000E-002	0.00000E+000	9	...........
	712	7.13	2.40855E-002	-6.67265E-007	0.00000E+000	2.40000E-002	0.00000E+000	9	...........
	715	7.16	3.00772E-002	-7.99365E-007	0.00000E+000	3.00000E-002	0.00000E+000	9	...........
	718	7.19	3.60772E-002	-5.48209E-007	0.00000E+000	3.60000E-002	0.00000E+000	9	...........
	721	7.22	4.21031E-002	-6.63380E-007	0.00000E+000	4.20000E-002	0.00000E+000	9	...........
	724	7.25	4.81057E-002	-4.04454E-007	0.00000E+000	4.80000E-002	0.00000E+000	9	...........
	727	7.28	5.40999E-002	-4.93261E-007	0.00000E+000	5.40000E-002	0.00000E+000	9	...........
	730	7.31	6.00807E-002	-2.21569E-007	0.00000E+000	6.00000E-002	0.00000E+000	9	...........
	733	7.34	6.60991E-002	-2.81790E-007	0.00000E+000	6.60000E-002	0.00000E+000	9	...........
	736	7.37	7.21100E-002	3.26395E-008	0.00000E+000	7.20000E-002	0.00000E+000	9	...........
	739	7.4	7.81234E-002	1.54333E-008	0.00000E+000	7.80000E-002	0.00000E+000	9	...........
	742	7.43	8.41151E-002	3.72601E-007	0.00000E+000	8.40000E-002	0.00000E+000	9	...........
	745	7.46	9.01319E-002	4.09789E-007	0.00000E+000	9.00000E-002	0.00000E+000	9	...........
	748	7.49	9.61244E-002	8.13303E-007	0.00000E+000	9.60000E-002	0.00000E+000	9	...........
	751	7.52	1.02134E-001	8.93783E-007	0.00000E+000	1.02000E-001	0.00000E+000	9	...........
	754	7.55	1.08124E-001	1.34670E-006	0.00000E+000	1.08000E-001	0.00000E+000	9	...........
	757	7.58	1.14120E-001	1.50682E-006	0.00000E+000	1.14000E-001	0.00000E+000	9	...........
	760	7.61	1.20134E-001	2.01469E-006	0.00000E+000	1.20000E-001	0.00000E+000	9	...........
	763	7.64	1.26139E-001	2.24031E-006	0.00000E+000	1.26000E-001	0.00000E+000	9	...........
	766	7.67	1.32141E-001	2.80534E-006	0.00000E+000	1.32000E-001	0.00000E+000	9	...........
	769	7.7	1.38145E-001	3.10728E-006	0.00000E+000	1.38000E-001	0.00000E+000	9	...........
	772	7.73	1.44154E-001	3.72032E-006	0.00000E+000	1.44000E-001	0.00000E+000	9	...........
	775	7.76	1.50155E-001	4.06805E-006	0.00000E+000	1.50000E-001	0.00000E+000	9	...........
	778	7.79	1.56155E-001	4.72383E-006	0.00000E+000	1.56000E-001	0.00000E+000	9	...........
	781	7.82	1.62159E-001	5.10043E-006	0.00000E+000	1.62000E-001	0.00000E+000	9	...........
	784	7.85	1.68177E-001	5.77092E-006	0.00000E+000	1.68000E-001	0.00000E+000	9	...........
	787	7.88	1.74157E-001	6.14002E-006	0.00000E+000	1.74000E-001	0.00000E+000	9	...........
	790	7.91	1.80179E-001	6.78553E-006	0.00000E+000	1.80000E-001	0.00000E+000	9	...........
	793	7.94	1.86179E-001	7.11855E-006	0.00000E+000	1.86000E-001	0.00000E+000	9	...........
	796	7.97	1.92197E-001	7.68747E-006	0.00000E+000	1.92000E-001	0.00000E+000	9	...........
	799	8	1.98178E-001	7.92752E-006	0.00000E+000	1.98000E-001	0.00000E+000	9	...........
	802	8.03	2.04182E-001	8.39903E-006	0.00000E+000	2.04000E-001	0.00000E+000	9	...........
	805	8.06	2.10184E-001	8.51309E-006	0.00000E+000	2.10000E-001	0.00000E+000	9	...........
	808	8.09	2.16172E-001	8.85527E-006	0.00000E+000	2.16000E-001	0.00000E+000	9	...........
	811	8.12	2.22173E-001	8.82585E-006	0.00000E+000	2.22000E-001	0.00000E+000	9	...........
	814	8.15	2.28193E-001	9.03816E-006	0.00000E+000	2.28000E-001	0.00000E+000	9	...........
	817	8.18	2.34209E-001	8.88746E-006	0.00000E+000	2.34000E-001	0.00000E+000	9	...........
	820	8.21	2.40206E-001	8.99681E-006	0.00000E+000	2.40000E-001	0.00000E+000	9	...........
	823	8.24	2.46215E-001	8.74898E-006	0.00000E+000	2.46000E-001	0.00000E+000	9	...........
	826	8.27	2.52195E-001	8.79283E-006	0.00000E+000	2.52000E-001	0.00000E+000	9	...........
	829	8.3	2.58225E-001	8.47202E-006	0.00000E+000	2.58000E-001	0.00000E+000	9	...........
	832	8.33	2.64212E-001	8.49033E-006	0.00000E+000	2.64000E-001	0.00000E+000	9	...........
	835	8.36	2.70232E-001	8.14649E-006	0.00000E+000	2.70000E-001	0.00000E+000	9	...........
	838	8.39	2.76233E-001	8.15509E-006	0.00000E+000	2.76000E-001	0.00000E+000	9	...........
	841	8.42	2.82241E-001	7.80486E-006	0.00000E+000	2.82000E-001	0.00000E+000	9	...........
	844	8.45	2.88236E-001	7.81735E-006	0.00000E+000	2.88000E-001	0.00000E+000	9	...........
	847	8.48	2.94224E-001	7.47350E-006	0.00000E+000	2.94000E-001	0.00000E+000	9	...........
	850	8.51	3.00227E-001	7.49431E-006	0.00000E+000	3.00000E-001	0.00000E+000	9	...........
	853	8.54	3.06253E-001	7.18349E-006	0.00000E+000	3.06000E-001	0.00000E+000	9	...........
	856	8.57	3.12250E-001	7.22678E-006	0.00000E+000	3.12000E-001	0.00000E+000	9	...........
	859	8.6	3.18251E-001	6.90875E-006	0.00000E+000	3.18000E-001	0.00000E+000	9	...........
	862	8.63	3.24266E-001	6.96897E-006	0.00000E+000	3.24000E-001	0.00000E+000	9	...........
	865	8.66	3.30272E-001	6.67674E-006	0.00000E+000	3.30000E-001	0.00000E+000	9	...........
	868	8.69	3.36276E-001	6.74140E-006	0.00000E+000	3.36000E-001	0.00000E+000	9	...........
	871	8.72	3.42268E-001	6.45306E-006	0.00000E+000	3.42000E-001	0.00000E+000	9	...........
	874	8.75	3.48272E-001	6.54409E-006	0.00000E+000	3.48000E-001	0.00000E+000	9	...........
	877	8.78	3.54277E-001	6.26407E-006	0.00000E+000	3.54000E-001	0.00000E+000	9	...........
	880	8.81	3.60297E-001	6.36453E-006	0.00000E+000	3.60000E-001	0.00000E+000	9	...........
	883	8.84	3.66276E-001	6.09728E-006	0.00000E+000	3.66000E-001	0.00000E+000	9	...........
	886	8.87	3.72300E-001	6.20440E-006	0.00000E+000	3.72000E-001	0.00000E+000	9	...........
	889	8.9	3.78314E-001	5.96130E-006	0.00000E+000	3.78000E-001	0.00000E+000	9	...........
	892	8.93	3.84320E-001	6.06953E-006	0.00000E+000	3.84000E-001	0.00000E+000	9	...........
	895	8.96	3.90289E-001	5.82725E-006	0.00000E+000	3.90000E-001	0.00000E+000	9	...........
	898	8.99	3.96310E-001	5.95380E-006	0.00000E+000	3.96000E-001	0.00000E+000	9	...........
	899	9	3.98325E-001	5.75260E-006	0.00000E+000	3.98000E-001	0.00000E+000	9	...........