File: Gnuplot/eq/Ferroceno/fc-1mM-F127-AuCNEA-Calcinado/5-FeOH-1mM-500.DTA.txt
"500mV/s"
EXPLAIN
TAG	CV
TITLE	LABEL	Cyclic Voltammetry	Test Identifier
DATE	LABEL	12/12/2016	Date
TIME	LABEL	15:11:14	Time
NOTES	NOTES	1	Notes...
	FeOH 1mM 500mv/
PSTAT	PSTAT	IFC1000-06217	Potentiostat
VINIT	POTEN	-2.00000E-001	F	Initial E (V)
VLIMIT1	POTEN	4.00000E-001	F	Scan Limit 1 (V)
VLIMIT2	POTEN	-2.00000E-001	F	Scan Limit 2 (V)
VFINAL	POTEN	4.00000E-001	F	Final E (V)
SCANRATE	QUANT	4.99999E+002	Scan Rate (mV/s)
STEPSIZE	QUANT	2.00000E+000	Step Size (mV)
CYCLES	IQUANT	1	Cycles (#)
IMODE	SELECTOR	1	I/E Range Mode
IRANGE	QUANT	5.00000E-001	Max Current (mA)
AREA	QUANT	1.00000E+000	Sample Area (cm^2)
EQDELAY	QUANT	5.00000E+000	Equil. Time (s)
IRCOMP	SELECTOR	0	IRComp
PFCOR	QUANT	5.00000E+001	PF Corr. (ohm)
SAMPLINGMODE	SELECTOR	1	Sampling Mode
EOC	QUANT	0	Open Circuit (V)
SEQUENCER	TOGGLE	TRUE	Run as Sequence
PSTATMODEL	IQUANT	48	Pstat Model
PSTATSECTION	LABEL	IFC1000-06217	Pstat Section
PSTATSERIALNO	LABEL	06217	Pstat Serial Number
CTRLMODE	IQUANT	1	Control Mode
IESTAB	IQUANT	2	I/E Stability
CASPEED	IQUANT	2	Control Amp Speed
CONVENTION	IQUANT	1	Current Convention
ICHRANGE	IQUANT	2	Ich Range
ICHRANGEMODE	TOGGLE	F	Ich Auto Range
ICHOFFSETENABLE	TOGGLE	F	Ich Offset Enable
ICHOFFSET	QUANT	0	Ich Offset (V)
ICHFILTER	IQUANT	3	Ich Filter
VCHRANGE	IQUANT	2	Vch Range
VCHRANGEMODE	TOGGLE	F	Vch Auto Range
VCHOFFSETENABLE	TOGGLE	F	Vch Offset Enable
VCHOFFSET	QUANT	0	Vch Offset (V)
VCHFILTER	IQUANT	3	Vch Filter
IERANGELOWERLIMIT	IQUANT	4	I/E Range Lower Limit
IERANGEMODE	TOGGLE	F	I/E AutoRange
IERANGE	IQUANT	9	I/E Range
ACHSELECT	IQUANT	4	Ach Select
CABLEID	IQUANT	14	Cable ID
DCCALDATE	LABEL	11/10/2016	DC Calibration Date
ACCALDATE	LABEL	11/10/2016	AC Calibration Date
FRAMEWORKVERSION	QUANT	6.23	Framework Version
INSTRUMENTVERSION	LABEL	3.26	Instrument Version
CURVE1	TABLE
	Pt	T	Vf	Im	Vu	Sig	Ach	IERange	Over
	#	s	V vs. Ref.	A	V	V	V	#	bits
	0	0.004	-2.00041E-001	-9.73647E-007	0.00000E+000	-2.00000E-001	0.00000E+000	9	...........
	6	0.028	-1.88030E-001	-5.43492E-007	0.00000E+000	-1.88000E-001	0.00000E+000	9	...........
	12	0.052	-1.76007E-001	-4.64398E-007	0.00000E+000	-1.76000E-001	0.00000E+000	9	...........
	18	0.076	-1.64027E-001	-4.86600E-007	0.00000E+000	-1.64000E-001	0.00000E+000	9	...........
	24	0.1	-1.52024E-001	-4.04038E-007	0.00000E+000	-1.52000E-001	0.00000E+000	9	...........
	30	0.124	-1.39988E-001	-2.15324E-007	0.00000E+000	-1.40000E-001	0.00000E+000	9	...........
	36	0.148	-1.27986E-001	-7.86459E-008	0.00000E+000	-1.28000E-001	0.00000E+000	9	...........
	42	0.172	-1.15998E-001	-9.59909E-008	0.00000E+000	-1.16000E-001	0.00000E+000	9	...........
	48	0.196	-1.04008E-001	-1.71615E-007	0.00000E+000	-1.04000E-001	0.00000E+000	9	...........
	54	0.22	-9.20010E-002	-1.26518E-007	0.00000E+000	-9.20000E-002	0.00000E+000	9	...........
	60	0.244	-7.99775E-002	3.93000E-008	0.00000E+000	-8.00000E-002	0.00000E+000	9	...........
	66	0.268	-6.79666E-002	1.60021E-007	0.00000E+000	-6.80000E-002	0.00000E+000	9	...........
	72	0.292	-5.59744E-002	1.50308E-007	0.00000E+000	-5.60000E-002	0.00000E+000	9	...........
	78	0.316	-4.39551E-002	6.98272E-008	0.00000E+000	-4.40000E-002	0.00000E+000	9	...........
	84	0.34	-3.19421E-002	1.45451E-007	0.00000E+000	-3.20000E-002	0.00000E+000	9	...........
	90	0.364	-1.99437E-002	3.20289E-007	0.00000E+000	-2.00000E-002	0.00000E+000	9	...........
	96	0.388	-7.94108E-003	4.65987E-007	0.00000E+000	-7.99999E-003	0.00000E+000	9	...........
	102	0.412	4.06360E-003	4.75700E-007	0.00000E+000	4.00000E-003	0.00000E+000	9	...........
	108	0.436	1.60787E-002	4.57661E-007	0.00000E+000	1.60000E-002	0.00000E+000	9	...........
	114	0.46	2.81022E-002	6.03359E-007	0.00000E+000	2.80000E-002	0.00000E+000	9	...........
	120	0.484	4.01069E-002	9.00305E-007	0.00000E+000	4.00000E-002	0.00000E+000	9	...........
	126	0.508	5.21011E-002	1.20905E-006	0.00000E+000	5.20000E-002	0.00000E+000	9	...........
	132	0.532	6.40995E-002	1.49142E-006	0.00000E+000	6.40000E-002	0.00000E+000	9	...........
	138	0.556	7.61084E-002	1.82653E-006	0.00000E+000	7.60000E-002	0.00000E+000	9	...........
	144	0.58	8.81006E-002	2.41487E-006	0.00000E+000	8.80000E-002	0.00000E+000	9	...........
	150	0.604	1.00130E-001	3.25506E-006	0.00000E+000	1.00000E-001	0.00000E+000	9	...........
	156	0.628	1.12129E-001	4.25621E-006	0.00000E+000	1.12000E-001	0.00000E+000	9	...........
	162	0.652	1.24135E-001	5.31356E-006	0.00000E+000	1.24000E-001	0.00000E+000	9	...........
	168	0.676	1.36153E-001	6.45556E-006	0.00000E+000	1.36000E-001	0.00000E+000	9	...........
	174	0.7	1.48151E-001	7.80500E-006	0.00000E+000	1.48000E-001	0.00000E+000	9	...........
	180	0.724	1.60162E-001	9.29875E-006	0.00000E+000	1.60000E-001	0.00000E+000	9	...........
	186	0.748	1.72175E-001	1.07203E-005	0.00000E+000	1.72000E-001	0.00000E+000	9	...........
	192	0.772	1.84180E-001	1.19151E-005	0.00000E+000	1.84000E-001	0.00000E+000	9	...........
	198	0.796	1.96191E-001	1.28302E-005	0.00000E+000	1.96000E-001	0.00000E+000	9	...........
	204	0.82	2.08197E-001	1.35601E-005	0.00000E+000	2.08000E-001	0.00000E+000	9	...........
	210	0.844	2.20204E-001	1.40492E-005	0.00000E+000	2.20000E-001	0.00000E+000	9	...........
	216	0.868	2.32198E-001	1.41838E-005	0.00000E+000	2.32000E-001	0.00000E+000	9	...........
	222	0.892	2.44205E-001	1.39354E-005	0.00000E+000	2.44000E-001	0.00000E+000	9	...........
	228	0.916	2.56225E-001	1.34366E-005	0.00000E+000	2.56000E-001	0.00000E+000	9	...........
	234	0.94	2.68215E-001	1.29683E-005	0.00000E+000	2.68000E-001	0.00000E+000	9	...........
	240	0.964	2.80240E-001	1.25978E-005	0.00000E+000	2.80000E-001	0.00000E+000	9	...........
	246	0.988	2.92230E-001	1.21995E-005	0.00000E+000	2.92000E-001	0.00000E+000	9	...........
	252	1.012	3.04256E-001	1.17139E-005	0.00000E+000	3.04000E-001	0.00000E+000	9	...........
	258	1.036	3.16260E-001	1.12039E-005	0.00000E+000	3.16000E-001	0.00000E+000	9	...........
	264	1.06	3.28278E-001	1.08598E-005	0.00000E+000	3.28000E-001	0.00000E+000	9	...........
	270	1.084	3.40287E-001	1.06697E-005	0.00000E+000	3.40000E-001	0.00000E+000	9	...........
	276	1.108	3.52275E-001	1.04817E-005	0.00000E+000	3.52000E-001	0.00000E+000	9	...........
	282	1.132	3.64296E-001	1.01743E-005	0.00000E+000	3.64000E-001	0.00000E+000	9	...........
	288	1.156	3.76301E-001	9.83575E-006	0.00000E+000	3.76000E-001	0.00000E+000	9	...........
	294	1.18	3.88324E-001	9.65120E-006	0.00000E+000	3.88000E-001	0.00000E+000	9	...........
	300	1.204	4.00333E-001	9.61859E-006	0.00000E+000	4.00000E-001	0.00000E+000	9	...........
	306	1.228	3.88320E-001	8.60842E-006	0.00000E+000	3.88000E-001	0.00000E+000	9	...........
	312	1.252	3.76288E-001	8.01730E-006	0.00000E+000	3.76000E-001	0.00000E+000	9	...........
	318	1.276	3.64296E-001	7.48585E-006	0.00000E+000	3.64000E-001	0.00000E+000	9	...........
	324	1.3	3.52285E-001	7.13756E-006	0.00000E+000	3.52000E-001	0.00000E+000	9	...........
	330	1.324	3.40268E-001	6.93289E-006	0.00000E+000	3.40000E-001	0.00000E+000	9	...........
	336	1.348	3.28244E-001	6.70810E-006	0.00000E+000	3.28000E-001	0.00000E+000	9	...........
	342	1.372	3.16244E-001	6.32720E-006	0.00000E+000	3.16000E-001	0.00000E+000	9	...........
	348	1.396	3.04245E-001	5.87138E-006	0.00000E+000	3.04000E-001	0.00000E+000	9	...........
	354	1.42	2.92243E-001	5.49811E-006	0.00000E+000	2.92000E-001	0.00000E+000	9	...........
	360	1.444	2.80230E-001	5.15954E-006	0.00000E+000	2.80000E-001	0.00000E+000	9	...........
	366	1.468	2.68204E-001	4.67249E-006	0.00000E+000	2.68000E-001	0.00000E+000	9	...........
	372	1.492	2.56233E-001	3.90793E-006	0.00000E+000	2.56000E-001	0.00000E+000	9	...........
	378	1.516	2.44216E-001	2.87208E-006	0.00000E+000	2.44000E-001	0.00000E+000	9	...........
	384	1.54	2.32205E-001	1.69748E-006	0.00000E+000	2.32000E-001	0.00000E+000	9	...........
	390	1.564	2.20202E-001	3.87587E-007	0.00000E+000	2.20000E-001	0.00000E+000	9	...........
	396	1.588	2.08191E-001	-1.22688E-006	0.00000E+000	2.08000E-001	0.00000E+000	9	...........
	402	1.612	1.96184E-001	-3.12859E-006	0.00000E+000	1.96000E-001	0.00000E+000	9	...........
	408	1.636	1.84184E-001	-5.18709E-006	0.00000E+000	1.84000E-001	0.00000E+000	9	...........
	414	1.66	1.72163E-001	-7.13389E-006	0.00000E+000	1.72000E-001	0.00000E+000	9	...........
	420	1.684	1.60168E-001	-8.79207E-006	0.00000E+000	1.60000E-001	0.00000E+000	9	...........
	426	1.708	1.48145E-001	-1.01221E-005	0.00000E+000	1.48000E-001	0.00000E+000	9	...........
	432	1.732	1.36146E-001	-1.11461E-005	0.00000E+000	1.36000E-001	0.00000E+000	9	...........
	438	1.756	1.24138E-001	-1.17518E-005	0.00000E+000	1.24000E-001	0.00000E+000	9	...........
	444	1.78	1.12110E-001	-1.17907E-005	0.00000E+000	1.12000E-001	0.00000E+000	9	...........
	450	1.804	1.00134E-001	-1.13064E-005	0.00000E+000	1.00000E-001	0.00000E+000	9	...........
	456	1.828	8.81193E-002	-1.06015E-005	0.00000E+000	8.80000E-002	0.00000E+000	9	...........
	462	1.852	7.61126E-002	-9.91187E-006	0.00000E+000	7.60000E-002	0.00000E+000	9	...........
	468	1.876	6.41100E-002	-9.27426E-006	0.00000E+000	6.40000E-002	0.00000E+000	9	...........
	474	1.9	5.21220E-002	-8.56867E-006	0.00000E+000	5.20000E-002	0.00000E+000	9	...........
	480	1.924	4.01027E-002	-7.81728E-006	0.00000E+000	4.00000E-002	0.00000E+000	9	...........
	486	1.948	2.81022E-002	-7.18662E-006	0.00000E+000	2.80000E-002	0.00000E+000	9	...........
	492	1.972	1.60766E-002	-6.76965E-006	0.00000E+000	1.60000E-002	0.00000E+000	9	...........
	498	1.996	4.05317E-003	-6.50045E-006	0.00000E+000	4.00000E-003	0.00000E+000	9	...........
	504	2.02	-7.95568E-003	-6.16743E-006	0.00000E+000	-7.99999E-003	0.00000E+000	9	...........
	510	2.044	-1.99583E-002	-5.75393E-006	0.00000E+000	-2.00000E-002	0.00000E+000	9	...........
	516	2.068	-3.19525E-002	-5.41882E-006	0.00000E+000	-3.20000E-002	0.00000E+000	9	...........
	522	2.092	-4.39572E-002	-5.26272E-006	0.00000E+000	-4.40000E-002	0.00000E+000	9	...........
	528	2.116	-5.59682E-002	-5.19334E-006	0.00000E+000	-5.60000E-002	0.00000E+000	9	...........
	534	2.14	-6.79645E-002	-5.02197E-006	0.00000E+000	-6.80000E-002	0.00000E+000	9	...........
	540	2.164	-7.99900E-002	-4.76110E-006	0.00000E+000	-8.00000E-002	0.00000E+000	9	...........
	546	2.188	-9.20093E-002	-4.56822E-006	0.00000E+000	-9.20000E-002	0.00000E+000	9	...........
	552	2.212	-1.03989E-001	-4.50231E-006	0.00000E+000	-1.04000E-001	0.00000E+000	9	...........
	558	2.236	-1.16006E-001	-4.53006E-006	0.00000E+000	-1.16000E-001	0.00000E+000	9	...........
	564	2.26	-1.27969E-001	-4.45999E-006	0.00000E+000	-1.28000E-001	0.00000E+000	9	...........
	570	2.284	-1.40003E-001	-4.27058E-006	0.00000E+000	-1.40000E-001	0.00000E+000	9	...........
	576	2.308	-1.52024E-001	-4.14292E-006	0.00000E+000	-1.52000E-001	0.00000E+000	9	...........
	582	2.332	-1.64035E-001	-4.17692E-006	0.00000E+000	-1.64000E-001	0.00000E+000	9	...........
	588	2.356	-1.76009E-001	-4.27613E-006	0.00000E+000	-1.76000E-001	0.00000E+000	9	...........
	594	2.38	-1.88045E-001	-4.27405E-006	0.00000E+000	-1.88000E-001	0.00000E+000	9	...........
	600	2.404	-2.00051E-001	-4.15749E-006	0.00000E+000	-2.00000E-001	0.00000E+000	9	...........
CURVE2	TABLE
	Pt	T	Vf	Im	Vu	Sig	Ach	IERange	Over
	#	s	V vs. Ref.	A	V	V	V	#	bits
	601	2.408	-1.98047E-001	-3.78631E-006	0.00000E+000	-1.98000E-001	0.00000E+000	9	...........
	604	2.42	-1.92025E-001	-3.60037E-006	0.00000E+000	-1.92000E-001	0.00000E+000	9	...........
	607	2.432	-1.86040E-001	-3.25000E-006	0.00000E+000	-1.86000E-001	0.00000E+000	9	...........
	610	2.444	-1.80028E-001	-3.08835E-006	0.00000E+000	-1.80000E-001	0.00000E+000	9	...........
	613	2.456	-1.74035E-001	-3.05019E-006	0.00000E+000	-1.74000E-001	0.00000E+000	9	...........
	616	2.468	-1.68028E-001	-2.74284E-006	0.00000E+000	-1.68000E-001	0.00000E+000	9	...........
	619	2.48	-1.62024E-001	-2.82748E-006	0.00000E+000	-1.62000E-001	0.00000E+000	9	...........
	622	2.492	-1.56011E-001	-2.59853E-006	0.00000E+000	-1.56000E-001	0.00000E+000	9	...........
	625	2.504	-1.50034E-001	-2.52845E-006	0.00000E+000	-1.50000E-001	0.00000E+000	9	...........
	628	2.516	-1.44021E-001	-2.54649E-006	0.00000E+000	-1.44000E-001	0.00000E+000	9	...........
	631	2.528	-1.38017E-001	-2.28562E-006	0.00000E+000	-1.38000E-001	0.00000E+000	9	...........
	634	2.54	-1.32024E-001	-2.41189E-006	0.00000E+000	-1.32000E-001	0.00000E+000	9	...........
	637	2.552	-1.26006E-001	-2.21208E-006	0.00000E+000	-1.26000E-001	0.00000E+000	9	...........
	640	2.564	-1.19995E-001	-2.15866E-006	0.00000E+000	-1.20000E-001	0.00000E+000	9	...........
	643	2.576	-1.13997E-001	-2.20167E-006	0.00000E+000	-1.14000E-001	0.00000E+000	9	...........
	646	2.588	-1.07998E-001	-1.96994E-006	0.00000E+000	-1.08000E-001	0.00000E+000	9	...........
	649	2.6	-1.01995E-001	-2.09621E-006	0.00000E+000	-1.02000E-001	0.00000E+000	9	...........
	652	2.612	-9.59977E-002	-1.90542E-006	0.00000E+000	-9.60000E-002	0.00000E+000	9	...........
	655	2.624	-8.99964E-002	-1.87489E-006	0.00000E+000	-9.00000E-002	0.00000E+000	9	...........
	658	2.636	-8.39867E-002	-1.92970E-006	0.00000E+000	-8.40000E-002	0.00000E+000	9	...........
	661	2.648	-7.79813E-002	-1.69589E-006	0.00000E+000	-7.80000E-002	0.00000E+000	9	...........
	664	2.66	-7.19862E-002	-1.83535E-006	0.00000E+000	-7.20000E-002	0.00000E+000	9	...........
	667	2.672	-6.59682E-002	-1.65010E-006	0.00000E+000	-6.60000E-002	0.00000E+000	9	...........
	670	2.684	-5.99649E-002	-1.62929E-006	0.00000E+000	-6.00000E-002	0.00000E+000	9	...........
	673	2.696	-5.39761E-002	-1.67300E-006	0.00000E+000	-5.40000E-002	0.00000E+000	9	...........
	676	2.708	-4.79560E-002	-1.44682E-006	0.00000E+000	-4.80000E-002	0.00000E+000	9	...........
	679	2.72	-4.19589E-002	-1.58558E-006	0.00000E+000	-4.20000E-002	0.00000E+000	9	...........
	682	2.732	-3.59555E-002	-1.40727E-006	0.00000E+000	-3.60000E-002	0.00000E+000	9	...........
	685	2.744	-2.99542E-002	-1.38299E-006	0.00000E+000	-3.00000E-002	0.00000E+000	9	...........
	688	2.756	-2.39633E-002	-1.43225E-006	0.00000E+000	-2.40000E-002	0.00000E+000	9	...........
	691	2.768	-1.79537E-002	-1.19774E-006	0.00000E+000	-1.80000E-002	0.00000E+000	9	...........
	694	2.78	-1.19482E-002	-1.33928E-006	0.00000E+000	-1.20000E-002	0.00000E+000	9	...........
	697	2.792	-5.94691E-003	-1.13391E-006	0.00000E+000	-6.00000E-003	0.00000E+000	9	...........
	700	2.804	9.19408E-005	-1.10061E-006	0.00000E+000	7.45058E-009	0.00000E+000	9	...........
	703	2.816	6.04735E-003	-1.13114E-006	0.00000E+000	6.00000E-003	0.00000E+000	9	...........
	706	2.828	1.20549E-002	-8.89004E-007	0.00000E+000	1.20000E-002	0.00000E+000	9	...........
	709	2.84	1.80666E-002	-1.00972E-006	0.00000E+000	1.80000E-002	0.00000E+000	9	...........
	712	2.852	2.40804E-002	-7.76608E-007	0.00000E+000	2.40000E-002	0.00000E+000	9	...........
	715	2.864	3.00817E-002	-7.20410E-007	0.00000E+000	3.00000E-002	0.00000E+000	9	...........
	718	2.876	3.60726E-002	-6.98209E-007	0.00000E+000	3.60000E-002	0.00000E+000	9	...........
	721	2.888	4.20989E-002	-4.20689E-007	0.00000E+000	4.20000E-002	0.00000E+000	9	...........
	724	2.9	4.81107E-002	-4.67174E-007	0.00000E+000	4.80000E-002	0.00000E+000	9	...........
	727	2.912	5.41099E-002	-1.77165E-007	0.00000E+000	5.40000E-002	0.00000E+000	9	...........
	730	2.924	6.00841E-002	-3.49366E-008	0.00000E+000	6.00000E-002	0.00000E+000	9	...........
	733	2.936	6.61062E-002	8.57845E-008	0.00000E+000	6.60000E-002	0.00000E+000	9	...........
	736	2.948	7.20992E-002	4.87494E-007	0.00000E+000	7.20000E-002	0.00000E+000	9	...........
	739	2.96	7.81359E-002	5.87402E-007	0.00000E+000	7.80000E-002	0.00000E+000	9	...........
	742	2.972	8.41372E-002	1.02103E-006	0.00000E+000	8.40000E-002	0.00000E+000	9	...........
	745	2.984	9.01260E-002	1.31936E-006	0.00000E+000	9.00000E-002	0.00000E+000	9	...........
	748	2.996	9.61211E-002	1.63434E-006	0.00000E+000	9.60000E-002	0.00000E+000	9	...........
	751	3.008	1.02137E-001	2.22130E-006	0.00000E+000	1.02000E-001	0.00000E+000	9	...........
	754	3.02	1.08130E-001	2.51547E-006	0.00000E+000	1.08000E-001	0.00000E+000	9	...........
	757	3.032	1.14125E-001	3.18013E-006	0.00000E+000	1.14000E-001	0.00000E+000	9	...........
	760	3.044	1.20124E-001	3.70603E-006	0.00000E+000	1.20000E-001	0.00000E+000	9	...........
	763	3.056	1.26144E-001	4.24442E-006	0.00000E+000	1.26000E-001	0.00000E+000	9	...........
	766	3.068	1.32175E-001	5.04923E-006	0.00000E+000	1.32000E-001	0.00000E+000	9	...........
	769	3.08	1.38164E-001	5.55223E-006	0.00000E+000	1.38000E-001	0.00000E+000	9	...........
	772	3.092	1.44156E-001	6.40005E-006	0.00000E+000	1.44000E-001	0.00000E+000	9	...........
	775	3.104	1.50131E-001	7.07720E-006	0.00000E+000	1.50000E-001	0.00000E+000	9	...........
	778	3.116	1.56155E-001	7.73978E-006	0.00000E+000	1.56000E-001	0.00000E+000	9	...........
	781	3.128	1.62162E-001	8.62160E-006	0.00000E+000	1.62000E-001	0.00000E+000	9	...........
	784	3.14	1.68180E-001	9.17456E-006	0.00000E+000	1.68000E-001	0.00000E+000	9	...........
	787	3.152	1.74161E-001	1.00106E-005	0.00000E+000	1.74000E-001	0.00000E+000	9	...........
	790	3.164	1.80187E-001	1.06163E-005	0.00000E+000	1.80000E-001	0.00000E+000	9	...........
	793	3.176	1.86195E-001	1.11706E-005	0.00000E+000	1.86000E-001	0.00000E+000	9	...........
	796	3.188	1.92194E-001	1.18603E-005	0.00000E+000	1.92000E-001	0.00000E+000	9	...........
	799	3.2	1.98183E-001	1.21690E-005	0.00000E+000	1.98000E-001	0.00000E+000	9	...........
	802	3.212	2.04176E-001	1.27046E-005	0.00000E+000	2.04000E-001	0.00000E+000	9	...........
	805	3.224	2.10162E-001	1.29807E-005	0.00000E+000	2.10000E-001	0.00000E+000	9	...........
	808	3.236	2.16174E-001	1.31542E-005	0.00000E+000	2.16000E-001	0.00000E+000	9	...........
	811	3.248	2.22180E-001	1.34296E-005	0.00000E+000	2.22000E-001	0.00000E+000	9	...........
	814	3.26	2.28191E-001	1.33103E-005	0.00000E+000	2.28000E-001	0.00000E+000	9	...........
	817	3.272	2.34216E-001	1.34373E-005	0.00000E+000	2.34000E-001	0.00000E+000	9	...........
	820	3.284	2.40198E-001	1.32936E-005	0.00000E+000	2.40000E-001	0.00000E+000	9	...........
	823	3.296	2.46206E-001	1.30883E-005	0.00000E+000	2.46000E-001	0.00000E+000	9	...........
	826	3.308	2.52192E-001	1.30668E-005	0.00000E+000	2.52000E-001	0.00000E+000	9	...........
	829	3.32	2.58219E-001	1.26553E-005	0.00000E+000	2.58000E-001	0.00000E+000	9	...........
	832	3.332	2.64222E-001	1.25839E-005	0.00000E+000	2.64000E-001	0.00000E+000	9	...........
	835	3.344	2.70200E-001	1.22904E-005	0.00000E+000	2.70000E-001	0.00000E+000	9	...........
	838	3.356	2.76223E-001	1.19817E-005	0.00000E+000	2.76000E-001	0.00000E+000	9	...........
	841	3.368	2.82241E-001	1.19088E-005	0.00000E+000	2.82000E-001	0.00000E+000	9	...........
	844	3.38	2.88227E-001	1.14787E-005	0.00000E+000	2.88000E-001	0.00000E+000	9	...........
	847	3.392	2.94208E-001	1.14162E-005	0.00000E+000	2.94000E-001	0.00000E+000	9	...........
	850	3.404	3.00245E-001	1.11595E-005	0.00000E+000	3.00000E-001	0.00000E+000	9	...........
	853	3.416	3.06246E-001	1.08806E-005	0.00000E+000	3.06000E-001	0.00000E+000	9	...........
	856	3.428	3.12253E-001	1.08501E-005	0.00000E+000	3.12000E-001	0.00000E+000	9	...........
	859	3.44	3.18240E-001	1.04740E-005	0.00000E+000	3.18000E-001	0.00000E+000	9	...........
	862	3.452	3.24254E-001	1.04491E-005	0.00000E+000	3.24000E-001	0.00000E+000	9	...........
	865	3.464	3.30274E-001	1.02659E-005	0.00000E+000	3.30000E-001	0.00000E+000	9	...........
	868	3.476	3.36279E-001	1.00210E-005	0.00000E+000	3.36000E-001	0.00000E+000	9	...........
	871	3.488	3.42272E-001	1.00619E-005	0.00000E+000	3.42000E-001	0.00000E+000	9	...........
	874	3.5	3.48276E-001	9.72682E-006	0.00000E+000	3.48000E-001	0.00000E+000	9	...........
	877	3.512	3.54273E-001	9.75596E-006	0.00000E+000	3.54000E-001	0.00000E+000	9	...........
	880	3.524	3.60289E-001	9.61512E-006	0.00000E+000	3.60000E-001	0.00000E+000	9	...........
	883	3.536	3.66278E-001	9.41877E-006	0.00000E+000	3.66000E-001	0.00000E+000	9	...........
	886	3.548	3.72300E-001	9.49093E-006	0.00000E+000	3.72000E-001	0.00000E+000	9	...........
	889	3.56	3.78314E-001	9.20439E-006	0.00000E+000	3.78000E-001	0.00000E+000	9	...........
	892	3.572	3.84315E-001	9.24879E-006	0.00000E+000	3.84000E-001	0.00000E+000	9	...........
	895	3.584	3.90297E-001	9.13432E-006	0.00000E+000	3.90000E-001	0.00000E+000	9	...........
	898	3.596	3.96305E-001	8.97266E-006	0.00000E+000	3.96000E-001	0.00000E+000	9	...........
	899	3.6	3.98291E-001	8.91924E-006	0.00000E+000	3.98000E-001	0.00000E+000	9	...........