File: Gnuplot/eq/Ferroceno/fc-1mM-F127-AuCNEA-Calcinado/6-FeOH-1mM-1000.DTA.txt
"1000mV/s"
EXPLAIN
TAG	CV
TITLE	LABEL	Cyclic Voltammetry	Test Identifier
DATE	LABEL	12/12/2016	Date
TIME	LABEL	15:11:23	Time
NOTES	NOTES	1	Notes...
	FeOH 1mM 1000mv/
PSTAT	PSTAT	IFC1000-06217	Potentiostat
VINIT	POTEN	-2.00000E-001	F	Initial E (V)
VLIMIT1	POTEN	4.00000E-001	F	Scan Limit 1 (V)
VLIMIT2	POTEN	-2.00000E-001	F	Scan Limit 2 (V)
VFINAL	POTEN	4.00000E-001	F	Final E (V)
SCANRATE	QUANT	9.99998E+002	Scan Rate (mV/s)
STEPSIZE	QUANT	2.00000E+000	Step Size (mV)
CYCLES	IQUANT	1	Cycles (#)
IMODE	SELECTOR	1	I/E Range Mode
IRANGE	QUANT	5.00000E-001	Max Current (mA)
AREA	QUANT	1.00000E+000	Sample Area (cm^2)
EQDELAY	QUANT	5.00000E+000	Equil. Time (s)
IRCOMP	SELECTOR	0	IRComp
PFCOR	QUANT	5.00000E+001	PF Corr. (ohm)
SAMPLINGMODE	SELECTOR	1	Sampling Mode
EOC	QUANT	0	Open Circuit (V)
SEQUENCER	TOGGLE	TRUE	Run as Sequence
PSTATMODEL	IQUANT	48	Pstat Model
PSTATSECTION	LABEL	IFC1000-06217	Pstat Section
PSTATSERIALNO	LABEL	06217	Pstat Serial Number
CTRLMODE	IQUANT	1	Control Mode
IESTAB	IQUANT	2	I/E Stability
CASPEED	IQUANT	2	Control Amp Speed
CONVENTION	IQUANT	1	Current Convention
ICHRANGE	IQUANT	2	Ich Range
ICHRANGEMODE	TOGGLE	F	Ich Auto Range
ICHOFFSETENABLE	TOGGLE	F	Ich Offset Enable
ICHOFFSET	QUANT	0	Ich Offset (V)
ICHFILTER	IQUANT	3	Ich Filter
VCHRANGE	IQUANT	2	Vch Range
VCHRANGEMODE	TOGGLE	F	Vch Auto Range
VCHOFFSETENABLE	TOGGLE	F	Vch Offset Enable
VCHOFFSET	QUANT	0	Vch Offset (V)
VCHFILTER	IQUANT	3	Vch Filter
IERANGELOWERLIMIT	IQUANT	4	I/E Range Lower Limit
IERANGEMODE	TOGGLE	F	I/E AutoRange
IERANGE	IQUANT	9	I/E Range
ACHSELECT	IQUANT	4	Ach Select
CABLEID	IQUANT	14	Cable ID
DCCALDATE	LABEL	11/10/2016	DC Calibration Date
ACCALDATE	LABEL	11/10/2016	AC Calibration Date
FRAMEWORKVERSION	QUANT	6.23	Framework Version
INSTRUMENTVERSION	LABEL	3.26	Instrument Version
CURVE1	TABLE
	Pt	T	Vf	Im	Vu	Sig	Ach	IERange	Over
	#	s	V vs. Ref.	A	V	V	V	#	bits
	0	0.002	-2.00051E-001	-9.98624E-007	0.00000E+000	-2.00000E-001	0.00000E+000	9	...........
	6	0.014	-1.88036E-001	-1.14723E-007	0.00000E+000	-1.88000E-001	0.00000E+000	9	...........
	12	0.026	-1.76013E-001	-6.47699E-008	0.00000E+000	-1.76000E-001	0.00000E+000	9	...........
	18	0.038	-1.64014E-001	1.11455E-007	0.00000E+000	-1.64000E-001	0.00000E+000	9	...........
	24	0.05	-1.52016E-001	3.20983E-007	0.00000E+000	-1.52000E-001	0.00000E+000	9	...........
	30	0.062	-1.39993E-001	2.48827E-007	0.00000E+000	-1.40000E-001	0.00000E+000	9	...........
	36	0.074	-1.27998E-001	5.47161E-007	0.00000E+000	-1.28000E-001	0.00000E+000	9	...........
	42	0.086	-1.16021E-001	4.79169E-007	0.00000E+000	-1.16000E-001	0.00000E+000	9	...........
	48	0.098	-1.04027E-001	5.79076E-007	0.00000E+000	-1.04000E-001	0.00000E+000	9	...........
	54	0.11	-9.19905E-002	7.38650E-007	0.00000E+000	-9.20000E-002	0.00000E+000	9	...........
	60	0.122	-7.99588E-002	6.47068E-007	0.00000E+000	-8.00000E-002	0.00000E+000	9	...........
	66	0.134	-6.79645E-002	9.16262E-007	0.00000E+000	-6.80000E-002	0.00000E+000	9	...........
	72	0.146	-5.59869E-002	8.39945E-007	0.00000E+000	-5.60000E-002	0.00000E+000	9	...........
	78	0.158	-4.39635E-002	9.64828E-007	0.00000E+000	-4.40000E-002	0.00000E+000	9	...........
	84	0.17	-3.19567E-002	1.13828E-006	0.00000E+000	-3.20000E-002	0.00000E+000	9	...........
	90	0.182	-1.99750E-002	1.04947E-006	0.00000E+000	-2.00000E-002	0.00000E+000	9	...........
	96	0.194	-7.95985E-003	1.37001E-006	0.00000E+000	-7.99999E-003	0.00000E+000	9	...........
	102	0.206	4.08029E-003	1.36168E-006	0.00000E+000	4.00000E-003	0.00000E+000	9	...........
	108	0.218	1.60745E-002	1.55456E-006	0.00000E+000	1.60000E-002	0.00000E+000	9	...........
	114	0.23	2.80980E-002	1.86677E-006	0.00000E+000	2.80000E-002	0.00000E+000	9	...........
	120	0.242	4.00923E-002	1.95696E-006	0.00000E+000	4.00000E-002	0.00000E+000	9	...........
	126	0.254	5.20948E-002	2.52449E-006	0.00000E+000	5.20000E-002	0.00000E+000	9	...........
	132	0.266	6.41100E-002	2.86306E-006	0.00000E+000	6.40000E-002	0.00000E+000	9	...........
	138	0.278	7.61167E-002	3.54993E-006	0.00000E+000	7.60000E-002	0.00000E+000	9	...........
	144	0.29	8.81193E-002	4.45464E-006	0.00000E+000	8.80000E-002	0.00000E+000	9	...........
	150	0.302	1.00134E-001	5.34825E-006	0.00000E+000	1.00000E-001	0.00000E+000	9	...........
	156	0.314	1.12108E-001	6.82466E-006	0.00000E+000	1.12000E-001	0.00000E+000	9	...........
	162	0.326	1.24119E-001	8.21920E-006	0.00000E+000	1.24000E-001	0.00000E+000	9	...........
	168	0.338	1.36155E-001	9.98700E-006	0.00000E+000	1.36000E-001	0.00000E+000	9	...........
	174	0.35	1.48149E-001	1.18894E-005	0.00000E+000	1.48000E-001	0.00000E+000	9	...........
	180	0.362	1.60156E-001	1.36364E-005	0.00000E+000	1.60000E-001	0.00000E+000	9	...........
	186	0.374	1.72175E-001	1.56567E-005	0.00000E+000	1.72000E-001	0.00000E+000	9	...........
	192	0.386	1.84173E-001	1.71068E-005	0.00000E+000	1.84000E-001	0.00000E+000	9	...........
	198	0.398	1.96193E-001	1.84916E-005	0.00000E+000	1.96000E-001	0.00000E+000	9	...........
	204	0.41	2.08187E-001	1.94365E-005	0.00000E+000	2.08000E-001	0.00000E+000	9	...........
	210	0.422	2.20181E-001	1.97626E-005	0.00000E+000	2.20000E-001	0.00000E+000	9	...........
	216	0.434	2.32217E-001	1.99430E-005	0.00000E+000	2.32000E-001	0.00000E+000	9	...........
	222	0.446	2.44199E-001	1.94282E-005	0.00000E+000	2.44000E-001	0.00000E+000	9	...........
	228	0.458	2.56222E-001	1.88815E-005	0.00000E+000	2.56000E-001	0.00000E+000	9	...........
	234	0.47	2.68208E-001	1.82626E-005	0.00000E+000	2.68000E-001	0.00000E+000	9	...........
	240	0.482	2.80240E-001	1.74079E-005	0.00000E+000	2.80000E-001	0.00000E+000	9	...........
	246	0.494	2.92226E-001	1.69486E-005	0.00000E+000	2.92000E-001	0.00000E+000	9	...........
	252	0.506	3.04229E-001	1.62104E-005	0.00000E+000	3.04000E-001	0.00000E+000	9	...........
	258	0.518	3.16256E-001	1.57261E-005	0.00000E+000	3.16000E-001	0.00000E+000	9	...........
	264	0.53	3.28255E-001	1.53695E-005	0.00000E+000	3.28000E-001	0.00000E+000	9	...........
	270	0.542	3.40287E-001	1.48117E-005	0.00000E+000	3.40000E-001	0.00000E+000	9	...........
	276	0.554	3.52256E-001	1.46729E-005	0.00000E+000	3.52000E-001	0.00000E+000	9	...........
	282	0.566	3.64292E-001	1.42289E-005	0.00000E+000	3.64000E-001	0.00000E+000	9	...........
	288	0.578	3.76282E-001	1.39958E-005	0.00000E+000	3.76000E-001	0.00000E+000	9	...........
	294	0.59	3.88301E-001	1.38542E-005	0.00000E+000	3.88000E-001	0.00000E+000	9	...........
	300	0.602	4.00325E-001	1.34879E-005	0.00000E+000	4.00000E-001	0.00000E+000	9	...........
	306	0.614	3.88305E-001	1.17090E-005	0.00000E+000	3.88000E-001	0.00000E+000	9	...........
	312	0.626	3.76290E-001	1.07252E-005	0.00000E+000	3.76000E-001	0.00000E+000	9	...........
	318	0.638	3.64283E-001	1.01424E-005	0.00000E+000	3.64000E-001	0.00000E+000	9	...........
	324	0.65	3.52260E-001	9.71364E-006	0.00000E+000	3.52000E-001	0.00000E+000	9	...........
	330	0.662	3.40291E-001	9.08089E-006	0.00000E+000	3.40000E-001	0.00000E+000	9	...........
	336	0.674	3.28242E-001	8.84917E-006	0.00000E+000	3.28000E-001	0.00000E+000	9	...........
	342	0.686	3.16235E-001	8.24972E-006	0.00000E+000	3.16000E-001	0.00000E+000	9	...........
	348	0.698	3.04241E-001	7.82373E-006	0.00000E+000	3.04000E-001	0.00000E+000	9	...........
	354	0.71	2.92230E-001	7.38664E-006	0.00000E+000	2.92000E-001	0.00000E+000	9	...........
	360	0.722	2.80219E-001	6.60819E-006	0.00000E+000	2.80000E-001	0.00000E+000	9	...........
	366	0.734	2.68225E-001	6.05177E-006	0.00000E+000	2.68000E-001	0.00000E+000	9	...........
	372	0.746	2.56235E-001	4.96250E-006	0.00000E+000	2.56000E-001	0.00000E+000	9	...........
	378	0.758	2.44207E-001	3.79276E-006	0.00000E+000	2.44000E-001	0.00000E+000	9	...........
	384	0.77	2.32226E-001	2.38712E-006	0.00000E+000	2.32000E-001	0.00000E+000	9	...........
	390	0.782	2.20177E-001	4.31990E-007	0.00000E+000	2.20000E-001	0.00000E+000	9	...........
	396	0.794	2.08179E-001	-1.46902E-006	0.00000E+000	2.08000E-001	0.00000E+000	9	...........
	402	0.806	1.96193E-001	-3.91674E-006	0.00000E+000	1.96000E-001	0.00000E+000	9	...........
	408	0.818	1.84173E-001	-6.30897E-006	0.00000E+000	1.84000E-001	0.00000E+000	9	...........
	414	0.83	1.72175E-001	-8.69980E-006	0.00000E+000	1.72000E-001	0.00000E+000	9	...........
	420	0.842	1.60156E-001	-1.11031E-005	0.00000E+000	1.60000E-001	0.00000E+000	9	...........
	426	0.854	1.48132E-001	-1.28959E-005	0.00000E+000	1.48000E-001	0.00000E+000	9	...........
	432	0.866	1.36138E-001	-1.45541E-005	0.00000E+000	1.36000E-001	0.00000E+000	9	...........
	438	0.878	1.24148E-001	-1.54449E-005	0.00000E+000	1.24000E-001	0.00000E+000	9	...........
	444	0.89	1.12125E-001	-1.57377E-005	0.00000E+000	1.12000E-001	0.00000E+000	9	...........
	450	0.902	1.00130E-001	-1.56420E-005	0.00000E+000	1.00000E-001	0.00000E+000	9	...........
	456	0.914	8.80860E-002	-1.48094E-005	0.00000E+000	8.80000E-002	0.00000E+000	9	...........
	462	0.926	7.60917E-002	-1.40545E-005	0.00000E+000	7.60000E-002	0.00000E+000	9	...........
	468	0.938	6.41100E-002	-1.29889E-005	0.00000E+000	6.40000E-002	0.00000E+000	9	...........
	474	0.95	5.21157E-002	-1.19065E-005	0.00000E+000	5.20000E-002	0.00000E+000	9	...........
	480	0.962	4.01048E-002	-1.11545E-005	0.00000E+000	4.00000E-002	0.00000E+000	9	...........
	486	0.974	2.81063E-002	-1.01471E-005	0.00000E+000	2.80000E-002	0.00000E+000	9	...........
	492	0.986	1.60912E-002	-9.59757E-006	0.00000E+000	1.60000E-002	0.00000E+000	9	...........
	498	0.998	4.07195E-003	-8.97177E-006	0.00000E+000	4.00000E-003	0.00000E+000	9	...........
	504	1.01	-7.93900E-003	-8.38481E-006	0.00000E+000	-7.99999E-003	0.00000E+000	9	...........
	510	1.022	-1.99458E-002	-8.11562E-006	0.00000E+000	-2.00000E-002	0.00000E+000	9	...........
	516	1.034	-3.19567E-002	-7.54115E-006	0.00000E+000	-3.20000E-002	0.00000E+000	9	...........
	522	1.046	-4.39843E-002	-7.36493E-006	0.00000E+000	-4.40000E-002	0.00000E+000	9	...........
	528	1.058	-5.59536E-002	-7.03884E-006	0.00000E+000	-5.60000E-002	0.00000E+000	9	...........
	534	1.07	-6.79603E-002	-6.71831E-006	0.00000E+000	-6.80000E-002	0.00000E+000	9	...........
	540	1.082	-7.99754E-002	-6.67113E-006	0.00000E+000	-8.00000E-002	0.00000E+000	9	...........
	546	1.094	-9.19822E-002	-6.27011E-006	0.00000E+000	-9.20000E-002	0.00000E+000	9	...........
	552	1.106	-1.04035E-001	-6.27011E-006	0.00000E+000	-1.04000E-001	0.00000E+000	9	...........
	558	1.118	-1.16033E-001	-6.08140E-006	0.00000E+000	-1.16000E-001	0.00000E+000	9	...........
	564	1.13	-1.27990E-001	-5.89269E-006	0.00000E+000	-1.28000E-001	0.00000E+000	9	...........
	570	1.142	-1.39980E-001	-5.95790E-006	0.00000E+000	-1.40000E-001	0.00000E+000	9	...........
	576	1.154	-1.52016E-001	-5.68455E-006	0.00000E+000	-1.52000E-001	0.00000E+000	9	...........
	582	1.166	-1.64048E-001	-5.80388E-006	0.00000E+000	-1.64000E-001	0.00000E+000	9	...........
	588	1.178	-1.76017E-001	-5.72617E-006	0.00000E+000	-1.76000E-001	0.00000E+000	9	...........
	594	1.19	-1.88028E-001	-5.64430E-006	0.00000E+000	-1.88000E-001	0.00000E+000	9	...........
	600	1.202	-2.00051E-001	-5.81914E-006	0.00000E+000	-2.00000E-001	0.00000E+000	9	...........
CURVE2	TABLE
	Pt	T	Vf	Im	Vu	Sig	Ach	IERange	Over
	#	s	V vs. Ref.	A	V	V	V	#	bits
	601	1.204	-1.98057E-001	-5.18640E-006	0.00000E+000	-1.98000E-001	0.00000E+000	9	...........
	604	1.21	-1.92037E-001	-4.35800E-006	0.00000E+000	-1.92000E-001	0.00000E+000	9	...........
	607	1.216	-1.86042E-001	-3.99723E-006	0.00000E+000	-1.86000E-001	0.00000E+000	9	...........
	610	1.222	-1.80039E-001	-3.87373E-006	0.00000E+000	-1.80000E-001	0.00000E+000	9	...........
	613	1.228	-1.74027E-001	-3.55181E-006	0.00000E+000	-1.74000E-001	0.00000E+000	9	...........
	616	1.234	-1.68036E-001	-3.28122E-006	0.00000E+000	-1.68000E-001	0.00000E+000	9	...........
	619	1.24	-1.62041E-001	-3.28400E-006	0.00000E+000	-1.62000E-001	0.00000E+000	9	...........
	622	1.246	-1.56025E-001	-3.13136E-006	0.00000E+000	-1.56000E-001	0.00000E+000	9	...........
	625	1.252	-1.50026E-001	-2.85523E-006	0.00000E+000	-1.50000E-001	0.00000E+000	9	...........
	628	1.258	-1.44035E-001	-2.83858E-006	0.00000E+000	-1.44000E-001	0.00000E+000	9	...........
	631	1.264	-1.38019E-001	-2.82054E-006	0.00000E+000	-1.38000E-001	0.00000E+000	9	...........
	634	1.27	-1.32028E-001	-2.55135E-006	0.00000E+000	-1.32000E-001	0.00000E+000	9	...........
	637	1.276	-1.26000E-001	-2.46393E-006	0.00000E+000	-1.26000E-001	0.00000E+000	9	...........
	640	1.282	-1.20001E-001	-2.54441E-006	0.00000E+000	-1.20000E-001	0.00000E+000	9	...........
	643	1.288	-1.13989E-001	-2.33072E-006	0.00000E+000	-1.14000E-001	0.00000E+000	9	...........
	646	1.294	-1.08002E-001	-2.17114E-006	0.00000E+000	-1.08000E-001	0.00000E+000	9	...........
	649	1.3	-1.01991E-001	-2.24885E-006	0.00000E+000	-1.02000E-001	0.00000E+000	9	...........
	652	1.306	-9.59831E-002	-2.17114E-006	0.00000E+000	-9.60000E-002	0.00000E+000	9	...........
	655	1.312	-9.00089E-002	-1.94913E-006	0.00000E+000	-9.00000E-002	0.00000E+000	9	...........
	658	1.318	-8.39930E-002	-1.98521E-006	0.00000E+000	-8.40000E-002	0.00000E+000	9	...........
	661	1.324	-7.79687E-002	-1.99076E-006	0.00000E+000	-7.80000E-002	0.00000E+000	9	...........
	664	1.33	-7.19654E-002	-1.76042E-006	0.00000E+000	-7.20000E-002	0.00000E+000	9	...........
	667	1.336	-6.59870E-002	-1.70491E-006	0.00000E+000	-6.60000E-002	0.00000E+000	9	...........
	670	1.342	-5.99795E-002	-1.78956E-006	0.00000E+000	-6.00000E-002	0.00000E+000	9	...........
	673	1.348	-5.39844E-002	-1.61333E-006	0.00000E+000	-5.40000E-002	0.00000E+000	9	...........
	676	1.354	-4.79685E-002	-1.45931E-006	0.00000E+000	-4.80000E-002	0.00000E+000	9	...........
	679	1.36	-4.19610E-002	-1.55505E-006	0.00000E+000	-4.20000E-002	0.00000E+000	9	...........
	682	1.366	-3.59659E-002	-1.46763E-006	0.00000E+000	-3.60000E-002	0.00000E+000	9	...........
	685	1.372	-2.99333E-002	-1.24423E-006	0.00000E+000	-3.00000E-002	0.00000E+000	9	...........
	688	1.378	-2.39258E-002	-1.28169E-006	0.00000E+000	-2.40000E-002	0.00000E+000	9	...........
	691	1.384	-1.79599E-002	-1.28863E-006	0.00000E+000	-1.80000E-002	0.00000E+000	9	...........
	694	1.39	-1.19273E-002	-1.04025E-006	0.00000E+000	-1.20000E-002	0.00000E+000	9	...........
	697	1.396	-5.94065E-003	-9.79198E-007	0.00000E+000	-6.00000E-003	0.00000E+000	9	...........
	700	1.402	8.77689E-005	-1.03748E-006	0.00000E+000	7.45058E-009	0.00000E+000	9	...........
	703	1.408	6.07864E-003	-8.36275E-007	0.00000E+000	6.00000E-003	0.00000E+000	9	...........
	706	1.414	1.20737E-002	-6.37848E-007	0.00000E+000	1.20000E-002	0.00000E+000	9	...........
	709	1.42	1.80771E-002	-6.87802E-007	0.00000E+000	1.80000E-002	0.00000E+000	9	...........
	712	1.426	2.41055E-002	-5.61530E-007	0.00000E+000	2.40000E-002	0.00000E+000	9	...........
	715	1.432	3.00755E-002	-2.68747E-007	0.00000E+000	3.00000E-002	0.00000E+000	9	...........
	718	1.438	3.60747E-002	-2.21569E-007	0.00000E+000	3.60000E-002	0.00000E+000	9	...........
	721	1.444	4.20906E-002	-1.48026E-007	0.00000E+000	4.20000E-002	0.00000E+000	9	...........
	724	1.45	4.81065E-002	2.29401E-007	0.00000E+000	4.80000E-002	0.00000E+000	9	...........
	727	1.456	5.41015E-002	4.48642E-007	0.00000E+000	5.40000E-002	0.00000E+000	9	...........
	730	1.462	6.00882E-002	5.62425E-007	0.00000E+000	6.00000E-002	0.00000E+000	9	...........
	733	1.468	6.61208E-002	9.60666E-007	0.00000E+000	6.60000E-002	0.00000E+000	9	...........
	736	1.474	7.20992E-002	1.38666E-006	0.00000E+000	7.20000E-002	0.00000E+000	9	...........
	739	1.48	7.81151E-002	1.62255E-006	0.00000E+000	7.80000E-002	0.00000E+000	9	...........
	742	1.486	8.40851E-002	2.03744E-006	0.00000E+000	8.40000E-002	0.00000E+000	9	...........
	745	1.492	9.01052E-002	2.67990E-006	0.00000E+000	9.00000E-002	0.00000E+000	9	...........
	748	1.498	9.61002E-002	3.13503E-006	0.00000E+000	9.60000E-002	0.00000E+000	9	...........
	751	1.504	1.02129E-001	3.65677E-006	0.00000E+000	1.02000E-001	0.00000E+000	9	...........
	754	1.51	1.08124E-001	4.48239E-006	0.00000E+000	1.08000E-001	0.00000E+000	9	...........
	757	1.516	1.14110E-001	5.21504E-006	0.00000E+000	1.14000E-001	0.00000E+000	9	...........
	760	1.522	1.20130E-001	5.84640E-006	0.00000E+000	1.20000E-001	0.00000E+000	9	...........
	763	1.528	1.26171E-001	6.79413E-006	0.00000E+000	1.26000E-001	0.00000E+000	9	...........
	766	1.534	1.32133E-001	7.77378E-006	0.00000E+000	1.32000E-001	0.00000E+000	9	...........
	769	1.54	1.38145E-001	8.56471E-006	0.00000E+000	1.38000E-001	0.00000E+000	9	...........
	772	1.546	1.44140E-001	9.52354E-006	0.00000E+000	1.44000E-001	0.00000E+000	9	...........
	775	1.552	1.50143E-001	1.06433E-005	0.00000E+000	1.50000E-001	0.00000E+000	9	...........
	778	1.558	1.56147E-001	1.15508E-005	0.00000E+000	1.56000E-001	0.00000E+000	9	...........
	781	1.564	1.62133E-001	1.24375E-005	0.00000E+000	1.62000E-001	0.00000E+000	9	...........
	784	1.57	1.68170E-001	1.35448E-005	0.00000E+000	1.68000E-001	0.00000E+000	9	...........
	787	1.576	1.74178E-001	1.44870E-005	0.00000E+000	1.74000E-001	0.00000E+000	9	...........
	790	1.582	1.80185E-001	1.52155E-005	0.00000E+000	1.80000E-001	0.00000E+000	9	...........
	793	1.588	1.86193E-001	1.60883E-005	0.00000E+000	1.86000E-001	0.00000E+000	9	...........
	796	1.594	1.92200E-001	1.69167E-005	0.00000E+000	1.92000E-001	0.00000E+000	9	...........
	799	1.6	1.98170E-001	1.74065E-005	0.00000E+000	1.98000E-001	0.00000E+000	9	...........
	802	1.606	2.04194E-001	1.79060E-005	0.00000E+000	2.04000E-001	0.00000E+000	9	...........
	805	1.612	2.10173E-001	1.84319E-005	0.00000E+000	2.10000E-001	0.00000E+000	9	...........
	808	1.618	2.16176E-001	1.86359E-005	0.00000E+000	2.16000E-001	0.00000E+000	9	...........
	811	1.624	2.22184E-001	1.86970E-005	0.00000E+000	2.22000E-001	0.00000E+000	9	...........
	814	1.63	2.28200E-001	1.88760E-005	0.00000E+000	2.28000E-001	0.00000E+000	9	...........
	817	1.636	2.34228E-001	1.88232E-005	0.00000E+000	2.34000E-001	0.00000E+000	9	...........
	820	1.642	2.40194E-001	1.85069E-005	0.00000E+000	2.40000E-001	0.00000E+000	9	...........
	823	1.648	2.46214E-001	1.83584E-005	0.00000E+000	2.46000E-001	0.00000E+000	9	...........
	826	1.654	2.52213E-001	1.81613E-005	0.00000E+000	2.52000E-001	0.00000E+000	9	...........
	829	1.66	2.58229E-001	1.76896E-005	0.00000E+000	2.58000E-001	0.00000E+000	9	...........
	832	1.666	2.64220E-001	1.73399E-005	0.00000E+000	2.64000E-001	0.00000E+000	9	...........
	835	1.672	2.70211E-001	1.71262E-005	0.00000E+000	2.70000E-001	0.00000E+000	9	...........
	838	1.678	2.76223E-001	1.66822E-005	0.00000E+000	2.76000E-001	0.00000E+000	9	...........
	841	1.684	2.82222E-001	1.62437E-005	0.00000E+000	2.82000E-001	0.00000E+000	9	...........
	844	1.69	2.88229E-001	1.60591E-005	0.00000E+000	2.88000E-001	0.00000E+000	9	...........
	847	1.696	2.94224E-001	1.57566E-005	0.00000E+000	2.94000E-001	0.00000E+000	9	...........
	850	1.702	3.00245E-001	1.53126E-005	0.00000E+000	3.00000E-001	0.00000E+000	9	...........
	853	1.708	3.06244E-001	1.51308E-005	0.00000E+000	3.06000E-001	0.00000E+000	9	...........
	856	1.714	3.12239E-001	1.49643E-005	0.00000E+000	3.12000E-001	0.00000E+000	9	...........
	859	1.72	3.18238E-001	1.45661E-005	0.00000E+000	3.18000E-001	0.00000E+000	9	...........
	862	1.726	3.24237E-001	1.43579E-005	0.00000E+000	3.24000E-001	0.00000E+000	9	...........
	865	1.732	3.30278E-001	1.42997E-005	0.00000E+000	3.30000E-001	0.00000E+000	9	...........
	868	1.738	3.36256E-001	1.40138E-005	0.00000E+000	3.36000E-001	0.00000E+000	9	...........
	871	1.744	3.42260E-001	1.37363E-005	0.00000E+000	3.42000E-001	0.00000E+000	9	...........
	874	1.75	3.48280E-001	1.37349E-005	0.00000E+000	3.48000E-001	0.00000E+000	9	...........
	877	1.756	3.54275E-001	1.35753E-005	0.00000E+000	3.54000E-001	0.00000E+000	9	...........
	880	1.762	3.60295E-001	1.32714E-005	0.00000E+000	3.60000E-001	0.00000E+000	9	...........
	883	1.768	3.66269E-001	1.32423E-005	0.00000E+000	3.66000E-001	0.00000E+000	9	...........
	886	1.774	3.72302E-001	1.32243E-005	0.00000E+000	3.72000E-001	0.00000E+000	9	...........
	889	1.78	3.78330E-001	1.29440E-005	0.00000E+000	3.78000E-001	0.00000E+000	9	...........
	892	1.786	3.84325E-001	1.28413E-005	0.00000E+000	3.84000E-001	0.00000E+000	9	...........
	895	1.792	3.90316E-001	1.29051E-005	0.00000E+000	3.90000E-001	0.00000E+000	9	...........
	898	1.798	3.96324E-001	1.27206E-005	0.00000E+000	3.96000E-001	0.00000E+000	9	...........
	899	1.8	3.98310E-001	1.26220E-005	0.00000E+000	3.98000E-001	0.00000E+000	9	...........